index,FP1,FP2,F7,F8,FZ,CZ,O1,O2,accelerometer_x,accelerometer_y,accelerometer_z,unused_0,digital_channel_0,digital_channel_1,digital_channel_2,digital_channel_3,unused_1,digital_channel_4,analog_channel_0,analog_channel_1,analog_channel_2,timestamp,marker_channel,our_gt_channel
0.0,0.0,0.0,0.0,0.0,0.0,0.0,0.0,0.0,0.0,0.0,0.0,192.0,0.0,0.0,0.0,0.0,0.0,0.0,0.0,0.0,0.0,1769807842.2169828,0.0,-44.0
1.0,-37854.02033972983,-6408.938039414649,-48614.93243157058,-62650.39743785828,-61716.56390626001,-19836.368541284628,-37654.32985476612,-51576.2256474764,0.024,0.998,-0.008,192.0,0.0,192.0,31.0,48.0,255.0,192.0,0.0,0.0,0.0,1769807842.697544,0.0,-44.0
2.0,-37510.071696051564,-6080.5015063883675,-48651.522237243924,-62323.14554728813,-61368.793114279884,-20692.730926600805,-37641.49995344877,-51307.58003086806,0.024,0.998,-0.008,192.0,0.0,0.0,0.0,0.0,0.0,0.0,0.0,0.0,0.0,1769807842.6975665,0.0,-44.0
3.0,-37522.07458282406,-6099.835765342208,-48270.26853206975,-62298.53627664284,-61379.47724812952,-21158.138949649212,-37293.03625739053,-51190.45688992225,0.024,0.998,-0.008,192.0,0.0,0.0,0.0,0.0,0.0,0.0,0.0,0.0,0.0,1769807842.697582,0.0,-44.0
4.0,-37855.47320311942,-6418.973972675082,-48217.40665643295,-62610.99131238357,-61708.293760811546,-20329.26921001306,-37280.049893862,-51437.08603824211,0.024,0.998,-0.008,192.0,0.0,0.0,0.0,0.0,0.0,0.0,0.0,0.0,0.0,1769807842.6975977,0.0,-44.0
5.0,-37939.94044541603,-6504.648209172275,-48606.014085532915,-62726.34866551741,-61803.55689568006,-19786.30063370474,-37636.56021792415,-51624.19249107748,0.024,0.998,-0.008,192.0,0.0,0.0,0.0,0.0,0.0,0.0,0.0,0.0,0.0,1769807842.6976156,0.0,-44.0
6.0,-37619.3270229491,-6205.045426493339,-48740.75040110951,-62434.770159097934,-61470.13592364025,-20506.63030226592,-37720.11103869809,-51413.46024435285,0.024,0.998,-0.008,192.0,0.0,0.0,0.0,0.0,0.0,0.0,0.0,0.0,0.0,1769807842.6976297,0.0,-44.0
7.0,-37558.887905941956,-6136.202053570993,-48390.073882350196,-62331.43804448105,-61390.988396524,-21223.137822525245,-37395.854281884946,-51240.92712890234,0.024,0.998,-0.008,192.0,0.0,0.0,0.0,0.0,0.0,0.0,0.0,0.0,0.0,1769807842.697642,0.0,-44.0
8.0,-37863.40807240106,-6408.9156876701945,-48235.31040374165,-62598.653149444246,-61699.24130430714,-20557.614631368477,-37290.26464107807,-51430.000535249776,0.044,1.008,-0.042,192.0,1.0,96.0,31.0,128.0,254.0,176.0,0.0,0.0,0.0,1769807842.6976464,0.0,-44.0
9.0,-38001.00541126793,-6541.528587523531,-48564.842172246244,-62761.68677350126,-61843.00772464368,-19874.299451625284,-37608.68759258838,-51639.77165696283,0.044,1.008,-0.042,192.0,0.0,0.0,0.0,0.0,0.0,0.0,0.0,0.0,0.0,1769807842.6976507,0.0,-44.0
10.0,-37695.904099452986,-6258.399040508157,-48749.02054655797,-62492.48236328154,-61537.70524712864,-20398.69372829124,-37747.11194600009,-51469.83134386913,0.044,1.008,-0.042,192.0,0.0,0.0,0.0,0.0,0.0,0.0,0.0,0.0,0.0,1769807842.6976547,0.0,-44.0
11.0,-37498.04645753461,-6051.7348112743875,-48414.14671112856,-62273.12234319715,-61331.35394231725,-21276.938471429166,-37433.15934338085,-51209.96996283173,0.044,1.008,-0.042,192.0,0.0,0.0,0.0,0.0,0.0,0.0,0.0,0.0,0.0,1769807842.6976588,0.0,-44.0
12.0,-37804.31006006122,-6337.926547280139,-48200.1734614579,-62534.19071843514,-61629.50386160659,-20773.420724084466,-37269.99160885711,-51369.0249763757,0.044,1.008,-0.042,192.0,0.0,0.0,0.0,0.0,0.0,0.0,0.0,0.0,0.0,1769807842.6976633,0.0,-44.0
13.0,-38028.386298225676,-6568.06010819198,-48496.334075490726,-62771.7674102506,-61854.13889338242,-19933.397463965113,-37567.135699645965,-51634.36253480465,0.044,1.008,-0.042,192.0,0.0,0.0,0.0,0.0,0.0,0.0,0.0,0.0,0.0,1769807842.697667,0.0,-44.0
14.0,-37793.71533318941,-6327.8012070418845,-48753.870875104774,-62570.93698631966,-61614.97522771064,-20239.43754904718,-37772.2129550234,-51533.98085045587,0.044,1.008,-0.042,192.0,0.0,0.0,0.0,0.0,0.0,0.0,0.0,0.0,0.0,1769807842.6976712,0.0,-44.0
15.0,-37503.07560003705,-6030.679467997488,-48497.27284875785,-62271.602424574194,-61318.05465436634,-21241.399197745228,-37512.06100130809,-51229.773608419135,0.044,1.008,-0.042,192.0,0.0,0.0,0.0,0.0,0.0,0.0,0.0,0.0,0.0,1769807842.6976752,0.0,-44.0
16.0,-37732.873884782064,-6246.351450246746,-48195.7254643113,-62461.23462453302,-61550.44574146817,-21005.074203619268,-37262.97316109815,-51306.84242330104,0.044,1.008,-0.042,192.0,0.0,0.0,0.0,0.0,0.0,0.0,0.0,0.0,0.0,1769807842.6976793,0.0,-44.0
17.0,-37997.764408321906,-6523.982468126115,-48407.86587093662,-62739.37973253486,-61819.493689476694,-20115.854753953787,-37491.85502432049,-51578.840801577666,0.044,1.008,-0.042,192.0,0.0,0.0,0.0,0.0,0.0,0.0,0.0,0.0,0.0,1769807842.697683,0.0,-44.0
18.0,-37827.10883940564,-6366.179152271647,-48705.36758963676,-62608.89024840477,-61645.373600169856,-20212.19077255616,-37737.38893716204,-51544.06148720521,0.038,1.012,-0.056,192.0,1.0,48.0,31.0,160.0,254.0,64.0,0.0,0.0,0.0,1769807842.6976871,0.0,-44.0
19.0,-37495.47600692225,-6039.016668679317,-48558.3601663542,-62279.80551478929,-61310.36565427371,-21233.19610753013,-37569.840260725054,-51248.90670167288,0.038,1.012,-0.056,192.0,0.0,0.0,0.0,0.0,0.0,0.0,0.0,0.0,0.0,1769807842.6976912,0.0,-44.0
20.0,-37650.55240995317,-6193.534278098855,-48193.87026952151,-62387.093888174764,-61468.10191489481,-21235.34187499784,-37248.46687894665,-51248.32555631704,0.038,1.012,-0.056,192.0,0.0,0.0,0.0,0.0,0.0,0.0,0.0,0.0,0.0,1769807842.6976953,0.0,-44.0
21.0,-37979.0112947239,-6529.480997262121,-48345.70566960641,-62714.72575840065,-61811.31295100605,-20297.239160208603,-37423.07870663151,-51547.6154145736,0.038,1.012,-0.056,192.0,0.0,0.0,0.0,0.0,0.0,0.0,0.0,0.0,0.0,1769807842.6976993,0.0,-44.0
22.0,-37885.06691277825,-6438.732914773574,-48687.039159183405,-62655.895966994285,-61712.965275402705,-20157.339591662836,-37712.62320430556,-51585.278103980796,0.038,1.012,-0.056,192.0,0.0,0.0,0.0,0.0,0.0,0.0,0.0,0.0,0.0,1769807842.6977031,0.0,-44.0
23.0,-37533.652786451916,-6098.047625785784,-48651.34342328828,-62325.26896301138,-61367.92139624613,-21126.332417289308,-37636.73903187979,-51310.0610745026,0.038,1.012,-0.056,192.0,0.0,0.0,0.0,0.0,0.0,0.0,0.0,0.0,0.0,1769807842.697712,0.0,-44.0
24.0,-37584.92768823239,-6154.195207857515,-48240.138380544,-62339.708189929515,-61424.13603355122,-21401.61650200087,-37274.059626347975,-51226.912585128855,0.038,1.012,-0.056,192.0,0.0,0.0,0.0,0.0,0.0,0.0,0.0,0.0,0.0,1769807842.6977162,0.0,-44.0
25.0,-37931.64794822311,-6496.981560824104,-48281.153831619486,-62669.597586345386,-61774.38786916588,-20500.72944172972,-37352.715415086204,-51502.88957391853,0.038,1.012,-0.056,192.0,0.0,0.0,0.0,0.0,0.0,0.0,0.0,0.0,0.0,1769807842.6977203,0.0,-44.0
26.0,-37895.7957501168,-6463.2751301855005,-48626.5776904318,-62670.35754565687,-61737.21691813671,-20149.27061191447,-37658.2414100458,-51589.033197049284,0.038,1.012,-0.056,192.0,0.0,0.0,0.0,0.0,0.0,0.0,0.0,0.0,0.0,1769807842.6977248,0.0,-44.0
27.0,-37559.58081002007,-6108.7317596354205,-48685.76510974945,-62350.43702726806,-61383.72407957603,-21008.359910054198,-37660.878915891524,-51339.02893531668,0.038,1.012,-0.056,192.0,0.0,0.0,0.0,0.0,0.0,0.0,0.0,0.0,0.0,1769807842.6977289,0.0,-44.0
28.0,-37552.5623622611,-6110.721064891943,-48296.26361087127,-62307.58873314723,-61375.856265527764,-21530.49666053017,-37296.657239992295,-51198.74938711517,0.048,1.008,-0.064,192.0,1.0,128.0,31.0,128.0,254.0,0.0,0.0,0.0,0.0,1769807842.6977327,0.0,-44.0
29.0,-37916.605224204686,-6480.2401042270785,-48270.84967742559,-62653.77255127103,-61748.99628746466,-20716.222610023335,-37308.0566296645,-51468.37848047954,0.048,1.008,-0.064,192.0,0.0,0.0,0.0,0.0,0.0,0.0,0.0,0.0,0.0,1769807842.6977367,0.0,-44.0
30.0,-37995.4174751541,-6550.759857983573,-48629.10343755525,-62758.870453699885,-61822.37706451143,-20150.187033437138,-37643.891590105486,-51641.828017452724,0.048,1.008,-0.064,192.0,0.0,0.0,0.0,0.0,0.0,0.0,0.0,0.0,0.0,1769807842.6977408,0.0,-44.0
31.0,-37673.93233465342,-6250.195950293059,-48772.42282300268,-62470.60000545979,-61493.78406927396,-20827.60135264413,-37731.51042837029,-51439.65648885447,0.048,1.008,-0.064,192.0,0.0,0.0,0.0,0.0,0.0,0.0,0.0,0.0,0.0,1769807842.6977448,0.0,-44.0
32.0,-37515.07848680955,-6092.929076305518,-48366.939826838956,-62281.07956422324,-61340.24993661046,-21567.533501092614,-37354.39179592035,-51195.4860324247,0.048,1.008,-0.064,192.0,0.0,0.0,0.0,0.0,0.0,0.0,0.0,0.0,0.0,1769807842.6977491,0.0,-44.0
33.0,-37831.95916795244,-6410.055626637415,-48219.77594134521,-62578.938910834666,-61671.01105106009,-20909.76636526184,-37263.35314075388,-51401.189136646884,0.048,1.008,-0.064,192.0,0.0,0.0,0.0,0.0,0.0,0.0,0.0,0.0,0.0,1769807842.6977532,0.0,-44.0
34.0,-37981.58174533627,-6556.1913318862125,-48552.59341628473,-62753.41662805279,-61821.393587755396,-20187.08976353285,-37583.765397520714,-51623.47723525492,0.048,1.008,-0.064,192.0,0.0,0.0,0.0,0.0,0.0,0.0,0.0,0.0,0.0,1769807842.6977572,0.0,-44.0
35.0,-37710.99152696032,-6294.161831636648,-48774.72505268158,-62527.3063811429,-61549.35050598985,-20684.326670685612,-37746.21787622188,-51488.36094002258,0.048,1.008,-0.064,192.0,0.0,0.0,0.0,0.0,0.0,0.0,0.0,0.0,0.0,1769807842.6977613,0.0,-44.0
36.0,-37479.71802708126,-6064.587064336189,-48446.98142373341,-62276.67627056555,-61307.214058305515,-21613.443984203815,-37437.47323006073,-51210.08172155401,0.048,1.008,-0.064,192.0,0.0,0.0,0.0,0.0,0.0,0.0,0.0,0.0,0.0,1769807842.697765,0.0,-44.0
37.0,-37766.73677763186,-6325.700143063086,-48192.61857183201,-62505.06639540987,-61588.35430006436,-21186.033926729433,-37238.56505615295,-51333.97744106978,0.048,1.008,-0.064,192.0,0.0,0.0,0.0,0.0,0.0,0.0,0.0,0.0,0.0,1769807842.6977692,0.0,-44.0
38.0,-38018.462123687525,-6565.914340724271,-48486.00756955237,-62760.50213104513,-61835.40813152887,-20349.519890489566,-37540.73828944424,-51611.42964499351,0.07,1.004,-0.07200000000000001,192.0,2.0,48.0,31.0,96.0,253.0,192.0,0.0,0.0,0.0,1769807842.6977744,0.0,-44.0
39.0,-37820.17979862449,-6386.094556581325,-48780.80472717342,-62598.13905932177,-61627.91688775026,-20619.12663210948,-37775.27514401378,-51549.694126807946,0.07,1.004,-0.07200000000000001,192.0,0.0,0.0,0.0,0.0,0.0,0.0,0.0,0.0,0.0,1769807842.6977785,0.0,-44.0
40.0,-37523.52744621366,-6093.286704216803,-48542.7586487244,-62290.93668352803,-61327.397683548654,-21616.506173194193,-37536.29029229764,-51246.492713271706,0.07,1.004,-0.07200000000000001,192.0,0.0,0.0,0.0,0.0,0.0,0.0,0.0,0.0,0.0,1769807842.6977825,0.0,-44.0
41.0,-37761.59587640713,-6313.96547722405,-48234.39398221898,-62482.8487614213,-61565.443761997674,-21385.970280882157,-37282.866213663365,-51320.655801374414,0.07,1.004,-0.07200000000000001,192.0,0.0,0.0,0.0,0.0,0.0,0.0,0.0,0.0,0.0,1769807842.6977863,0.0,-44.0
42.0,-38041.41736524312,-6572.8657332498715,-48436.25258639486,-62768.14642764884,-61852.44016080382,-20448.359304470934,-37503.7014488818,-51600.54434544377,0.07,1.004,-0.07200000000000001,192.0,0.0,0.0,0.0,0.0,0.0,0.0,0.0,0.0,0.0,1769807842.6977904,0.0,-44.0
43.0,-37893.85114834919,-6444.6114235653195,-48764.89028512124,-62665.0378304765,-61705.49979275463,-20483.1833223323,-37777.91264985951,-51593.43649070698,0.07,1.004,-0.07200000000000001,192.0,0.0,0.0,0.0,0.0,0.0,0.0,0.0,0.0,0.0,1769807842.6977942,0.0,-44.0
44.0,-37516.33018449905,-6078.266331942837,-48600.11322499672,-62290.22142770546,-61314.970113631505,-21522.6288464819,-37590.29210690166,-51258.517951788665,0.07,1.004,-0.07200000000000001,192.0,0.0,0.0,0.0,0.0,0.0,0.0,0.0,0.0,0.0,1769807842.6977994,0.0,-44.0
45.0,-37686.00227665929,-6240.942328088561,-48229.476598438814,-62405.3776151392,-61478.137848155246,-21590.868722303956,-37261.72146340865,-51253.24294009721,0.07,1.004,-0.07200000000000001,192.0,0.0,0.0,0.0,0.0,0.0,0.0,0.0,0.0,0.0,1769807842.6978033,0.0,-44.0
46.0,-38024.877074346194,-6572.441050105221,-48361.73187038086,-62738.15038658982,-61823.00291335618,-20662.176091930403,-37425.24682584367,-51558.29954842324,0.07,1.004,-0.07200000000000001,192.0,0.0,0.0,0.0,0.0,0.0,0.0,0.0,0.0,0.0,1769807842.6978073,0.0,-44.0
47.0,-37943.00263440641,-6499.462604458643,-48706.060493714875,-62691.94933080069,-61734.490005313164,-20490.335880558003,-37723.48615211083,-51603.29361001177,0.07,1.004,-0.07200000000000001,192.0,0.0,0.0,0.0,0.0,0.0,0.0,0.0,0.0,0.0,1769807842.6978111,0.0,-44.0
48.0,-37572.366007848505,-6141.141789095615,-48682.859382970266,-62350.28056505687,-61366.982622979005,-21447.929316512265,-37658.64374144599,-51319.739379851744,0.064,1.01,-0.074,192.0,2.0,0.0,31.0,144.0,253.0,176.0,0.0,0.0,0.0,1769807842.6978152,0.0,-44.0
49.0,-37624.49027591828,-6173.1271354111595,-48262.57953197713,-62352.87336741369,-61413.42954795713,-21752.047151571172,-37281.9497921407,-51221.749332159685,0.064,1.01,-0.074,192.0,0.0,0.0,0.0,0.0,0.0,0.0,0.0,0.0,0.0,1769807842.6978195,0.0,-44.0
50.0,-38000.71483859001,-6543.8084654579725,-48309.406436610996,-62706.165040274274,-61786.97190129422,-20837.79374811575,-37366.79701409305,-51519.22869911536,0.064,1.01,-0.074,192.0,0.0,0.0,0.0,0.0,0.0,0.0,0.0,0.0,0.0,1769807842.6978233,0.0,-44.0
51.0,-38000.916004290106,-6551.452762061687,-48675.639769511195,-62742.374866291866,-61789.74351760668,-20436.55758339853,-37691.88078545103,-51633.98255514891,0.064,1.01,-0.074,192.0,0.0,0.0,0.0,0.0,0.0,0.0,0.0,0.0,0.0,1769807842.6978276,0.0,-44.0
52.0,-37643.824534872125,-6201.960885758506,-48740.236310987035,-62416.48643213349,-61438.709370936085,-21270.165892859208,-37706.23060539134,-51380.625531748,0.064,1.01,-0.074,192.0,0.0,0.0,0.0,0.0,0.0,0.0,0.0,0.0,0.0,1769807842.6978316,0.0,-44.0
53.0,-37592.54963309165,-6151.848274689708,-48331.132332221554,-62334.47788172697,-61386.47334414403,-21841.387074159036,-37336.75626954511,-51224.85622463897,0.064,1.01,-0.074,192.0,0.0,0.0,0.0,0.0,0.0,0.0,0.0,0.0,0.0,1769807842.6978357,0.0,-44.0
54.0,-37918.773343416855,-6470.405336666744,-48243.200569534376,-62636.82992897391,-61716.27333358209,-21060.93121301308,-37292.030428890044,-51449.714773859356,0.064,1.01,-0.074,192.0,0.0,0.0,0.0,0.0,0.0,0.0,0.0,0.0,0.0,1769807842.6978397,0.0,-44.0
55.0,-38022.10545803374,-6572.418698360765,-48614.86537633722,-62762.67025025729,-61813.41401498485,-20475.24845305067,-37629.430011442906,-51636.01656389434,0.064,1.01,-0.074,192.0,0.0,0.0,0.0,0.0,0.0,0.0,0.0,0.0,0.0,1769807842.697844,0.0,-44.0
56.0,-37686.62812550404,-6232.560423917821,-48750.62987215875,-62454.17147328514,-61466.22436836057,-21138.71528371755,-37706.74469551381,-51422.713866557344,0.064,1.01,-0.074,192.0,0.0,0.0,0.0,0.0,0.0,0.0,0.0,0.0,0.0,1769807842.697848,0.0,-44.0
57.0,-37546.90737091391,-6095.231305984415,-48373.33242575317,-62279.76081130038,-61323.95551490254,-21912.018586637805,-37358.19159247775,-51194.25668647965,0.064,1.01,-0.074,192.0,0.0,0.0,0.0,0.0,0.0,0.0,0.0,0.0,0.0,1769807842.697852,0.0,-44.0
58.0,-37869.64420910409,-6409.005094648015,-48193.8255660326,-62558.509416402514,-61650.55920488349,-21281.475875553595,-37233.245340972586,-51377.63039799099,0.064,1.01,-0.074,192.0,0.0,0.0,0.0,0.0,0.0,0.0,0.0,0.0,0.0,1769807842.697856,0.0,-44.0
59.0,-38055.096632849774,-6588.489602624131,-48543.4068493136,-62763.832540968964,-61837.44214027431,-20518.5437820606,-37569.39322583595,-51627.09821785668,0.062,1.012,-0.078,192.0,1.0,240.0,31.0,160.0,253.0,144.0,0.0,0.0,0.0,1769807842.6978595,0.0,-44.0
60.0,-37745.52497214377,-6302.163756151647,-48740.862159831784,-62497.13152612824,-61517.633380607775,-20978.16270329508,-37709.89629148201,-51459.013099552765,0.062,1.012,-0.078,192.0,0.0,0.0,0.0,0.0,0.0,0.0,0.0,0.0,0.0,1769807842.6978636,0.0,-44.0
61.0,-37512.530387941646,-6089.889239059597,-48434.82207474972,-62257.56552905626,-61290.02556681938,-21917.695929729456,-37417.64723272887,-51187.37234918742,0.062,1.012,-0.078,192.0,0.0,0.0,0.0,0.0,0.0,0.0,0.0,0.0,0.0,1769807842.6978674,0.0,-44.0
62.0,-37823.264339359324,-6402.0537021224145,-48212.62338311951,-62532.514337600995,-61611.77892825353,-21493.839799623467,-37247.48340219061,-51353.512865723715,0.062,1.012,-0.078,192.0,0.0,0.0,0.0,0.0,0.0,0.0,0.0,0.0,0.0,1769807842.6978712,0.0,-44.0
63.0,-38072.86626969174,-6647.162931819312,-48498.81511912526,-62788.017128469604,-61865.13595165443,-20610.856486661018,-37541.56530398909,-51634.67545922702,0.062,1.012,-0.078,192.0,0.0,0.0,0.0,0.0,0.0,0.0,0.0,0.0,0.0,1769807842.6978753,0.0,-44.0
64.0,-37867.61020035866,-6426.730028001074,-48772.93691312515,-62603.68229194669,-61634.175376197745,-20835.715035881407,-37760.85826884011,-51548.12950469607,0.062,1.012,-0.078,192.0,0.0,0.0,0.0,0.0,0.0,0.0,0.0,0.0,0.0,1769807842.697879,0.0,-44.0
65.0,-37564.72171124479,-6112.464500959457,-48559.14247741014,-62298.89390455412,-61330.348113816755,-21853.501719653814,-37541.878228411464,-51252.639442996915,0.062,1.012,-0.078,192.0,0.0,0.0,0.0,0.0,0.0,0.0,0.0,0.0,0.0,1769807842.697884,0.0,-44.0
66.0,-37799.75030419234,-6358.154876012191,-48246.687441669405,-62501.08778489683,-61585.00153839607,-21670.396229075937,-37275.1995653152,-51330.02118230119,0.062,1.012,-0.078,192.0,0.0,0.0,0.0,0.0,0.0,0.0,0.0,0.0,0.0,1769807842.6978884,0.0,-44.0
67.0,-38095.374476358236,-6642.64787943934,-48443.85217950967,-62787.86066625842,-61861.4032103304,-20735.467461999353,-37487.496434151704,-51620.95148813147,0.062,1.012,-0.078,192.0,0.0,0.0,0.0,0.0,0.0,0.0,0.0,0.0,0.0,1769807842.6978922,0.0,-44.0
68.0,-37922.349622529706,-6477.580246636898,-48742.00209879901,-62650.01745820254,-61680.33172849796,-20756.63456399853,-37732.69507082642,-51576.82914457669,0.062,1.012,-0.078,192.0,0.0,0.0,0.0,0.0,0.0,0.0,0.0,0.0,0.0,1769807842.697896,0.0,-44.0
69.0,-37564.07351065559,-6134.7938936703085,-48617.36877171621,-62307.6557883806,-61318.63579972218,-21792.034422401717,-37588.05693245613,-51266.87750421495,0.064,1.012,-0.074,192.0,2.0,0.0,31.0,160.0,253.0,176.0,0.0,0.0,0.0,1769807842.6979,0.0,-44.0
70.0,-37696.12761689754,-6262.690575443576,-48227.174368759916,-62395.52049583441,-61460.12234212427,-21882.38017349007,-37248.042195802,-51249.86782668446,0.064,1.012,-0.074,192.0,0.0,0.0,0.0,0.0,0.0,0.0,0.0,0.0,0.0,1769807842.697904,0.0,-44.0
71.0,-38040.00920534244,-6600.82776556346,-48335.13329447905,-62726.10279632841,-61807.51315444865,-20924.294999157788,-37383.49376720116,-51543.90502499402,0.064,1.012,-0.074,192.0,0.0,0.0,0.0,0.0,0.0,0.0,0.0,0.0,0.0,1769807842.697908,0.0,-44.0
72.0,-37995.6186408542,-6565.355547112888,-48712.497796118,-62719.03964508053,-61758.473427113706,-20684.52783638571,-37716.735925285335,-51626.092389356185,0.064,1.012,-0.074,192.0,0.0,0.0,0.0,0.0,0.0,0.0,0.0,0.0,0.0,1769807842.6979115,0.0,-44.0
73.0,-37628.06655503113,-6199.70335956852,-48705.7475692925,-62373.1240478902,-61378.71728881804,-21621.982350585742,-37666.35509328307,-51346.941452853855,0.064,1.012,-0.074,192.0,0.0,0.0,0.0,0.0,0.0,0.0,0.0,0.0,0.0,1769807842.6979158,0.0,-44.0
74.0,-37676.525137010234,-6242.171674033603,-48297.783529494234,-62378.711984004025,-61429.5004522205,-21979.520854892835,-37299.36180107138,-51249.62195749545,0.064,1.012,-0.074,192.0,0.0,0.0,0.0,0.0,0.0,0.0,0.0,0.0,0.0,1769807842.6979196,0.0,-44.0
75.0,-38035.60591168475,-6584.0192537330695,-48304.73492201983,-62715.3516072454,-61787.17306699432,-21094.50353318495,-37358.12453724439,-51526.62712653007,0.064,1.012,-0.074,192.0,0.0,0.0,0.0,0.0,0.0,0.0,0.0,0.0,0.0,1769807842.6979237,0.0,-44.0
76.0,-38061.06454861934,-6614.149405258823,-48677.047929411885,-62772.39325909535,-61807.62491317093,-20662.89134775297,-37696.46289306437,-51660.93875896201,0.064,1.012,-0.074,192.0,0.0,0.0,0.0,0.0,0.0,0.0,0.0,0.0,0.0,1769807842.6979277,0.0,-44.0
77.0,-37726.0566027232,-6280.48256403,-48778.346035283335,-62461.74871465549,-61459.608252001795,-21475.265499981106,-37740.6075883636,-51430.89460502799,0.064,1.012,-0.074,192.0,0.0,0.0,0.0,0.0,0.0,0.0,0.0,0.0,0.0,1769807842.6979315,0.0,-44.0
78.0,-37671.0936631076,-6226.771322103897,-48380.12735606758,-62376.543864791856,-61410.948504322594,-22078.293213640834,-37376.7211886312,-51261.736602990226,0.064,1.012,-0.074,192.0,0.0,0.0,0.0,0.0,0.0,0.0,0.0,0.0,0.0,1769807842.6979353,0.0,-44.0
79.0,-38021.70312663354,-6568.149515169802,-48295.10132015959,-62698.45368843719,-61769.090505729975,-21303.31352988643,-37333.73878404365,-51501.52611750676,0.046,1.006,-0.064,192.0,1.0,112.0,31.0,112.0,254.0,0.0,0.0,0.0,0.0,1769807842.6979392,0.0,-44.0
80.0,-38091.10529316727,-6658.785838936072,-48636.635975436686,-62804.75858506663,-61845.8463961895,-20679.789266561183,-37658.286113534705,-51678.28371265933,0.046,1.006,-0.064,192.0,0.0,0.0,0.0,0.0,0.0,0.0,0.0,0.0,0.0,1769807842.697943,0.0,-44.0
81.0,-37768.748434632835,-6331.019858243449,-48787.6667127212,-62505.66989251017,-61515.465261395606,-21309.616721822826,-37751.31407395769,-51466.61269266757,0.046,1.006,-0.064,192.0,0.0,0.0,0.0,0.0,0.0,0.0,0.0,0.0,0.0,1769807842.6979468,0.0,-44.0
82.0,-37626.01019454124,-6191.902600753618,-48437.05724919525,-62342.45745449752,-61379.03021324042,-22118.168725749103,-37418.45189552926,-51244.10107661499,0.046,1.006,-0.064,192.0,0.0,0.0,0.0,0.0,0.0,0.0,0.0,0.0,0.0,1769807842.6979508,0.0,-44.0
83.0,-37954.40202407861,-6514.326514521422,-48268.279226813225,-62641.23322263161,-61713.658179480815,-21505.932093373787,-37304.279184851555,-51447.43489592492,0.046,1.006,-0.064,192.0,0.0,0.0,0.0,0.0,0.0,0.0,0.0,0.0,0.0,1769807842.697955,0.0,-44.0
84.0,-38110.48425561002,-6661.356289548432,-48563.858695490206,-62809.74302408016,-61872.04264069112,-20735.378055021534,-37587.78871152267,-51655.8425612262,0.046,1.006,-0.064,192.0,0.0,0.0,0.0,0.0,0.0,0.0,0.0,0.0,0.0,1769807842.6979587,0.0,-44.0
85.0,-37837.59180755518,-6405.026484134971,-48800.362503571814,-62584.34803299285,-61587.66139598625,-21154.629725769726,-37759.33835021715,-51526.02362942978,0.046,1.006,-0.064,192.0,0.0,0.0,0.0,0.0,0.0,0.0,0.0,0.0,0.0,1769807842.6979628,0.0,-44.0
86.0,-37583.18425216487,-6141.6111757291765,-48498.5468981918,-62317.02116930737,-61325.251916080946,-22111.239684967957,-37454.75112852468,-51237.8425881675,0.046,1.006,-0.064,192.0,0.0,0.0,0.0,0.0,0.0,0.0,0.0,0.0,0.0,1769807842.6979666,0.0,-44.0
87.0,-37854.26620891884,-6391.034292105948,-48215.59616513207,-62539.085750470855,-61596.065651901445,-21727.616694881523,-37225.60104436887,-51353.311700023616,0.046,1.006,-0.064,192.0,0.0,0.0,0.0,0.0,0.0,0.0,0.0,0.0,0.0,1769807842.6979716,0.0,-44.0
88.0,-38142.067270525375,-6682.813964225526,-48508.292258774316,-62830.954829568254,-61875.641271548426,-20823.533335153264,-37528.735402671744,-51660.73759326191,0.046,1.006,-0.064,192.0,0.0,0.0,0.0,0.0,0.0,0.0,0.0,0.0,0.0,1769807842.6979754,0.0,-44.0
89.0,-37911.21845379096,-6464.66093834173,-48789.05252087743,-62640.942649953686,-61644.18895771372,-21006.14708735312,-37758.35487346112,-51583.22174349091,0.036000000000000004,0.998,-0.058,192.0,1.0,32.0,31.0,48.0,254.0,48.0,0.0,0.0,0.0,1769807842.6979795,0.0,-44.0
90.0,-37562.12890888797,-6104.7978526112865,-48549.866503461184,-62289.41676490507,-61290.293787752846,-22030.572239228757,-37506.294251238614,-51242.98348939222,0.036000000000000004,0.998,-0.058,192.0,0.0,0.0,0.0,0.0,0.0,0.0,0.0,0.0,0.0,1769807842.6979835,0.0,-44.0
91.0,-37771.07301605619,-6320.179262182625,-48201.40280740295,-62453.61267967376,-61502.74711880054,-21888.19162704845,-37200.96942197912,-51285.921190490866,0.036000000000000004,0.998,-0.058,192.0,0.0,0.0,0.0,0.0,0.0,0.0,0.0,0.0,0.0,1769807842.6979876,0.0,-44.0
92.0,-38111.80300853289,-6659.456391269731,-48419.15350188655,-62798.656558830335,-61856.10584689449,-20921.81395552325,-37438.59081728349,-51612.01079034934,0.036000000000000004,0.998,-0.058,192.0,0.0,0.0,0.0,0.0,0.0,0.0,0.0,0.0,0.0,1769807842.6979916,0.0,-44.0
93.0,-37981.24646916944,-6539.829854944927,-48760.91167460819,-62706.52266818556,-61712.92057191379,-20876.70813521244,-37728.00120449081,-51619.90095614207,0.036000000000000004,0.998,-0.058,192.0,0.0,0.0,0.0,0.0,0.0,0.0,0.0,0.0,0.0,1769807842.6979957,0.0,-44.0
94.0,-37618.6788223599,-6178.9385889695395,-48658.27246406943,-62347.464245255505,-61340.09347439927,-21897.869932397596,-37588.07928420058,-51303.55671686611,0.036000000000000004,0.998,-0.058,192.0,0.0,0.0,0.0,0.0,0.0,0.0,0.0,0.0,0.0,1769807842.6979997,0.0,-44.0
95.0,-37722.79324803272,-6261.327119031802,-48246.620386436036,-62406.942237251074,-61452.63450773174,-22045.860832436185,-37221.10834373335,-51249.063163884064,0.036000000000000004,0.998,-0.058,192.0,0.0,0.0,0.0,0.0,0.0,0.0,0.0,0.0,0.0,1769807842.6980033,0.0,-44.0
96.0,-38060.86338291924,-6602.101814997413,-48330.014744998785,-62740.67613371326,-61796.18082000981,-21108.22750428051,-37338.47735386817,-51537.08774293515,0.036000000000000004,0.998,-0.058,192.0,0.0,0.0,0.0,0.0,0.0,0.0,0.0,0.0,0.0,1769807842.698007,0.0,-44.0
97.0,-38008.91792880511,-6562.0027854445925,-48695.95750522107,-62726.19220330623,-61743.587165306475,-20850.17661454399,-37663.31525603715,-51612.614287449636,0.036000000000000004,0.998,-0.058,192.0,0.0,0.0,0.0,0.0,0.0,0.0,0.0,0.0,0.0,1769807842.6980112,0.0,-44.0
98.0,-37617.44947641486,-6176.099917423716,-48680.601856780275,-62354.95207964803,-61348.81065473684,-21781.97613739683,-37609.8275315556,-51310.68692334735,0.036000000000000004,0.998,-0.058,192.0,0.0,0.0,0.0,0.0,0.0,0.0,0.0,0.0,0.0,1769807842.6980152,0.0,-44.0
99.0,-37674.64759047599,-6209.6945893400425,-48271.47552627033,-62362.23874834046,-61404.19827749709,-22165.24149957198,-37242.051928287976,-51208.60650641996,0.024,0.996,-0.05,192.0,0.0,192.0,31.0,32.0,254.0,112.0,0.0,0.0,0.0,1769807842.6980193,0.0,-44.0
100.0,-38067.65831323365,-6614.685847125751,-48305.13725342003,-62732.98713362064,-61800.695872389784,-21256.173700830186,-37319.500722825615,-51520.256879360306,0.024,0.996,-0.05,192.0,0.0,0.0,0.0,0.0,0.0,0.0,0.0,0.0,0.0,1769807842.698023,0.0,-44.0
101.0,-38086.45613032057,-6638.892786370849,-48671.795269464885,-62785.13375343487,-61819.31487552106,-20775.767657252272,-37654.75453791077,-51657.02720368233,0.024,0.996,-0.05,192.0,0.0,0.0,0.0,0.0,0.0,0.0,0.0,0.0,0.0,1769807842.698027,0.0,-44.0
102.0,-37697.915756453964,-6253.101677072248,-48745.89130233423,-62437.83234808831,-61434.48489123403,-21564.56071908006,-37681.710741723866,-51398.90925871245,0.024,0.996,-0.05,192.0,0.0,0.0,0.0,0.0,0.0,0.0,0.0,0.0,0.0,1769807842.6980307,0.0,-44.0
103.0,-37640.248255759274,-6168.880303964652,-48338.37429742507,-62338.8141201513,-61371.43062012561,-22212.53779083941,-37306.73787674164,-51212.42865472182,0.024,0.996,-0.05,192.0,0.0,0.0,0.0,0.0,0.0,0.0,0.0,0.0,0.0,1769807842.6980345,0.0,-44.0
104.0,-37984.12984420417,-6515.309991277456,-48235.24334850828,-62658.93580424021,-61722.08478714047,-21464.514310898103,-37252.110213292865,-51448.597186636594,0.024,0.996,-0.05,192.0,0.0,0.0,0.0,0.0,0.0,0.0,0.0,0.0,0.0,1769807842.6980383,0.0,-44.0
105.0,-38109.81370327636,-6644.927757373782,-48606.03643727737,-62808.1784019683,-61848.81917820206,-20806.389547156043,-37606.765342565224,-51656.46841007095,0.024,0.996,-0.05,192.0,0.0,0.0,0.0,0.0,0.0,0.0,0.0,0.0,0.0,1769807842.6980429,0.0,-44.0
106.0,-37791.122530832596,-6348.655384618686,-48784.38100628627,-62520.80202350641,-61517.18634571867,-21394.598054241902,-37730.10226846961,-51470.61365492507,0.024,0.996,-0.05,192.0,0.0,0.0,0.0,0.0,0.0,0.0,0.0,0.0,0.0,1769807842.6980464,0.0,-44.0
107.0,-37596.572947093606,-6150.350707811202,-48407.73176046989,-62308.97454130346,-61325.2742678254,-22229.323950925347,-37369.81449959451,-51208.60650641996,0.024,0.996,-0.05,192.0,0.0,0.0,0.0,0.0,0.0,0.0,0.0,0.0,0.0,1769807842.6980505,0.0,-44.0
108.0,-37917.96868061646,-6461.33052841789,-48208.845938306564,-62596.44032674317,-61654.783684585535,-21637.583868215548,-37217.10738147586,-51386.90637193994,0.024,0.996,-0.05,192.0,0.0,0.0,0.0,0.0,0.0,0.0,0.0,0.0,0.0,1769807842.6980553,0.0,-44.0
109.0,-38104.382229373725,-6658.159990091323,-48528.09590436172,-62807.61960835691,-61845.511120022675,-20816.045500760734,-37526.14260031493,-51633.62492723762,0.02,1.0,-0.044,192.0,0.0,160.0,31.0,64.0,254.0,160.0,0.0,0.0,0.0,1769807842.698059,0.0,-44.0
110.0,-37853.23802867389,-6422.594955276842,-48784.626875475275,-62594.74159416457,-61585.09094537389,-21189.76666805347,-37721.94388174342,-51520.882728205055,0.02,1.0,-0.044,192.0,0.0,0.0,0.0,0.0,0.0,0.0,0.0,0.0,0.0,1769807842.6980631,0.0,-44.0
111.0,-37589.30863014563,-6149.948376411006,-48492.69074114451,-62312.28259948285,-61307.03524434987,-22168.95188915156,-37428.018442156135,-51222.017553093145,0.02,1.0,-0.044,192.0,0.0,0.0,0.0,0.0,0.0,0.0,0.0,0.0,0.0,1769807842.698067,0.0,-44.0
112.0,-37871.365293427145,-6419.733931986562,-48215.77497908771,-62551.0662854989,-61591.34943382138,-21811.927474966942,-37195.78381726549,-51343.72280165229,0.02,1.0,-0.044,192.0,0.0,0.0,0.0,0.0,0.0,0.0,0.0,0.0,0.0,1769807842.6980708,0.0,-44.0
113.0,-38121.05663073738,-6670.676966986295,-48477.20098223698,-62818.70607360674,-61858.96687018477,-20888.50985628484,-37463.2894949066,-51627.58995623469,0.02,1.0,-0.044,192.0,0.0,0.0,0.0,0.0,0.0,0.0,0.0,0.0,0.0,1769807842.6980748,0.0,-44.0
114.0,-37934.151343602105,-6485.269246729523,-48783.50928825251,-62660.366315885345,-61666.36188821339,-21037.193660401543,-37712.91377698348,-51575.912723054025,0.02,1.0,-0.044,192.0,0.0,0.0,0.0,0.0,0.0,0.0,0.0,0.0,0.0,1769807842.6980789,0.0,-44.0
115.0,-37589.93447899038,-6141.968803640461,-48571.65945430511,-62310.42740469306,-61310.343302529254,-22072.191187404536,-37444.446974330785,-51241.12829460243,0.02,1.0,-0.044,192.0,0.0,0.0,0.0,0.0,0.0,0.0,0.0,0.0,0.0,1769807842.6980827,0.0,-44.0
116.0,-37795.14584483455,-6333.344439666801,-48212.51162439724,-62469.90710138168,-61518.30393294143,-21964.38872389659,-37100.699496352616,-51277.29341713112,0.02,1.0,-0.044,192.0,0.0,0.0,0.0,0.0,0.0,0.0,0.0,0.0,0.0,1769807842.6980865,0.0,-44.0
117.0,-38130.801991319895,-6672.263940842622,-48405.69775172445,-62806.56907636751,-61851.791960214614,-20989.763258667383,-37308.83894072044,-51588.474403437904,0.02,1.0,-0.044,192.0,0.0,0.0,0.0,0.0,0.0,0.0,0.0,0.0,0.0,1769807842.6980903,0.0,-44.0
118.0,-38000.15604497863,-6553.017384173559,-48751.769811125974,-62717.2515055241,-61729.90789769983,-20910.28045538431,-37604.99955475325,-51604.83588037919,0.02,1.0,-0.044,192.0,0.0,0.0,0.0,0.0,0.0,0.0,0.0,0.0,0.0,1769807842.6980944,0.0,-44.0
119.0,-37616.35424093655,-6162.308891094791,-48651.05285061036,-62344.0667800983,-61338.394741820666,-21923.507383287833,-37470.75497755468,-51283.50720208969,0.018000000000000002,1.0,-0.042,192.0,0.0,144.0,31.0,64.0,254.0,176.0,0.0,0.0,0.0,1769807842.6980984,0.0,-44.0
120.0,-37740.74169883033,-6285.176430365615,-48247.514456214245,-62415.70412107756,-61448.432379774145,-22088.93264400156,-37114.53522617045,-51243.43052428133,0.018000000000000002,1.0,-0.042,192.0,0.0,0.0,0.0,0.0,0.0,0.0,0.0,0.0,0.0,1769807842.6981022,0.0,-44.0
121.0,-38091.55232805638,-6641.038553838558,-48337.48022764686,-62758.82575021098,-61811.15648879487,-21125.19247832209,-37239.21325674215,-51551.705783808924,0.018000000000000002,1.0,-0.042,192.0,0.0,0.0,0.0,0.0,0.0,0.0,0.0,0.0,0.0,1769807843.1775584,0.0,-44.0
122.0,-38081.71756049604,-6629.035667066058,-48729.21690097057,-62783.077392944986,-61799.42182295583,-20810.390509413544,-37581.08318818607,-51655.239064125904,0.018000000000000002,1.0,-0.042,192.0,0.0,0.0,0.0,0.0,0.0,0.0,0.0,0.0,0.0,1769807843.1775944,0.0,-44.0
123.0,-37678.58149750013,-6232.828644851285,-48738.425819686156,-62408.126879707204,-61392.57537038033,-21713.892723785964,-37547.01912963619,-51361.492438494264,0.018000000000000002,1.0,-0.042,192.0,0.0,0.0,0.0,0.0,0.0,0.0,0.0,0.0,0.0,1769807843.1776078,0.0,-44.0
124.0,-37647.98195934081,-6195.545935099833,-48274.94004666091,-62343.79855916483,-61374.55986434935,-22161.57581348131,-37123.58768267485,-51194.681369624304,0.018000000000000002,1.0,-0.042,192.0,0.0,0.0,0.0,0.0,0.0,0.0,0.0,0.0,0.0,1769807843.1776197,0.0,-44.0
125.0,-38029.14625753716,-6563.835628489927,-48271.430822781425,-62701.71704312767,-61758.965165491725,-21279.330108085884,-37163.15027036074,-51479.979035851844,0.018000000000000002,1.0,-0.042,192.0,0.0,0.0,0.0,0.0,0.0,0.0,0.0,0.0,0.0,1769807843.177634,0.0,-44.0
126.0,-38095.843862991795,-6647.587614963963,-48659.45710652556,-62790.94520699325,-61814.77747139663,-20756.053418642692,-37515.03378332064,-51642.7891424643,0.018000000000000002,1.0,-0.042,192.0,0.0,0.0,0.0,0.0,0.0,0.0,0.0,0.0,0.0,1769807843.1776483,0.0,-44.0
127.0,-37751.895219313534,-6322.660305817164,-48794.23812559106,-62483.005223632485,-61472.79578123043,-21498.846590381454,-37591.029714468685,-51432.32511667313,0.018000000000000002,1.0,-0.042,192.0,0.0,0.0,0.0,0.0,0.0,0.0,0.0,0.0,0.0,1769807843.1776624,0.0,-44.0
128.0,-37640.941159837384,-6199.591600846244,-48375.947579854444,-62347.888928400156,-61371.944710248084,-22174.539825265387,-37209.060753471946,-51221.950497859776,0.018000000000000002,1.0,-0.042,192.0,0.0,0.0,0.0,0.0,0.0,0.0,0.0,0.0,0.0,1769807843.177667,0.0,-44.0
129.0,-37985.64976282713,-6534.219567086646,-48257.12570633003,-62672.324499168935,-61729.72908374418,-21424.95172321221,-37140.68676718316,-51452.37463144954,0.026000000000000002,1.002,-0.038,192.0,0.0,208.0,31.0,80.0,254.0,208.0,0.0,0.0,0.0,1769807843.1776712,0.0,-44.0
130.0,-38104.71750554055,-6648.973423120192,-48606.52817565539,-62810.95001828075,-61837.531547252125,-20726.504412472776,-37466.68696006382,-51655.08260191472,0.026000000000000002,1.002,-0.038,192.0,0.0,0.0,0.0,0.0,0.0,0.0,0.0,0.0,0.0,1769807843.1776755,0.0,-44.0
131.0,-37774.62694342458,-6342.329840937834,-48778.480145750065,-62510.699035012614,-61503.12709845628,-21290.21540763562,-37577.886888728965,-51458.56606466366,0.026000000000000002,1.002,-0.038,192.0,0.0,0.0,0.0,0.0,0.0,0.0,0.0,0.0,0.0,1769807843.17768,0.0,-44.0
132.0,-37580.837318997066,-6150.954204911495,-48423.82501647771,-62296.30110219731,-61317.629971221686,-22159.29593554687,-37242.85659108837,-51202.01274180564,0.026000000000000002,1.002,-0.038,192.0,0.0,0.0,0.0,0.0,0.0,0.0,0.0,0.0,0.0,1769807843.1776843,0.0,-44.0
133.0,-37923.668375452566,-6478.85429607085,-48224.00042104726,-62594.76394590902,-61657.600004386906,-21596.344899695505,-37096.45266490611,-51384.1794591164,0.026000000000000002,1.002,-0.038,192.0,0.0,0.0,0.0,0.0,0.0,0.0,0.0,0.0,0.0,1769807843.1776888,0.0,-44.0
134.0,-38139.69798561311,-6695.062720187035,-48547.921901693575,-62824.87515507641,-61874.63544304794,-20743.961124892372,-37416.14966585036,-51651.72984024642,0.026000000000000002,1.002,-0.038,192.0,0.0,0.0,0.0,0.0,0.0,0.0,0.0,0.0,0.0,1769807843.177693,0.0,-44.0
135.0,-37873.2875434503,-6426.730028001074,-48806.732750741576,-62602.989387868576,-61613.254143387574,-21083.21590223502,-37614.09671474656,-51534.383181856065,0.026000000000000002,1.002,-0.038,192.0,0.0,0.0,0.0,0.0,0.0,0.0,0.0,0.0,0.0,1769807843.1776972,0.0,-44.0
136.0,-37559.80432746462,-6108.30707649077,-48499.44096797001,-62285.63932009212,-61288.393889474144,-22080.729553786463,-37302.49104529513,-51203.7338261287,0.026000000000000002,1.002,-0.038,192.0,0.0,0.0,0.0,0.0,0.0,0.0,0.0,0.0,0.0,1769807843.1777017,0.0,-44.0
137.0,-37834.55197030926,-6374.359890742289,-48206.54370862767,-62520.33263687285,-61572.39515452328,-21749.499052703268,-37065.13787092422,-51312.54211813714,0.026000000000000002,1.002,-0.038,192.0,0.0,0.0,0.0,0.0,0.0,0.0,0.0,0.0,0.0,1769807843.177706,0.0,-44.0
138.0,-38130.1984942196,-6678.097746145457,-48478.40797643757,-62822.61762888642,-61879.5081233392,-20796.130096451056,-37348.312121428506,-51624.25954631085,0.026000000000000002,1.002,-0.038,192.0,0.0,0.0,0.0,0.0,0.0,0.0,0.0,0.0,0.0,1769807843.1777103,0.0,-44.0
139.0,-37932.966701145975,-6499.552011436464,-48797.68029423717,-62678.40417366078,-61689.51829546908,-20900.64685352407,-37608.39701991046,-51587.91560982652,0.026000000000000002,1.008,-0.046,192.0,0.0,208.0,31.0,128.0,254.0,144.0,0.0,0.0,0.0,1769807843.1777143,0.0,-44.0
140.0,-37574.2212026383,-6117.895974862096,-48604.04713202085,-62315.009512306395,-61315.171279331604,-21943.467491086423,-37397.64242144137,-51256.23807385422,0.026000000000000002,1.008,-0.046,192.0,0.0,0.0,0.0,0.0,0.0,0.0,0.0,0.0,0.0,1769807843.1777186,0.0,-44.0
141.0,-37768.591972421644,-6324.269631417947,-48226.63792689299,-62456.29488900839,-61508.55857235892,-21886.627004936578,-37078.168937941664,-51275.840553741524,0.026000000000000002,1.008,-0.046,192.0,0.0,0.0,0.0,0.0,0.0,0.0,0.0,0.0,0.0,1769807843.177723,0.0,-44.0
142.0,-38132.411316920676,-6698.795461511071,-48417.92415594151,-62808.60308511295,-61864.64421327641,-20894.634234265595,-37296.38901905883,-51610.40146474856,0.026000000000000002,1.008,-0.046,192.0,0.0,0.0,0.0,0.0,0.0,0.0,0.0,0.0,0.0,1769807843.1777272,0.0,-44.0
143.0,-38012.09187651776,-6573.402175116798,-48761.67163391968,-62722.258296282096,-61740.81554899402,-20770.135017649536,-37591.163824935415,-51627.36643879014,0.026000000000000002,1.008,-0.046,192.0,0.0,0.0,0.0,0.0,0.0,0.0,0.0,0.0,0.0,1769807843.1777315,0.0,-44.0
144.0,-37621.226921227804,-6193.467222865489,-48684.53576380441,-62353.99095463645,-61357.4831315855,-21770.085009346607,-37480.47798639274,-51312.72093209278,0.026000000000000002,1.008,-0.046,192.0,0.0,0.0,0.0,0.0,0.0,0.0,0.0,0.0,0.0,1769807843.177736,0.0,-44.0
145.0,-37680.168471356454,-6251.71586891602,-48232.382325218,-62369.972451921996,-61423.621943428756,-21993.02130854384,-37086.17086245667,-51219.26828852514,0.026000000000000002,1.008,-0.046,192.0,0.0,0.0,0.0,0.0,0.0,0.0,0.0,0.0,0.0,1769807843.17774,0.0,-44.0
146.0,-38060.17047884112,-6615.982248304159,-48309.317029633174,-62734.127072587864,-61798.57245666653,-21036.232535389965,-37199.71772428963,-51523.98962068434,0.026000000000000002,1.008,-0.046,192.0,0.0,0.0,0.0,0.0,0.0,0.0,0.0,0.0,0.0,1769807843.1777444,0.0,-44.0
147.0,-38017.970385309505,-6565.6461197908075,-48675.863286955755,-62728.539136474035,-61748.83982525347,-20695.681356868907,-37523.639204935935,-51610.69203742648,0.026000000000000002,1.008,-0.046,192.0,0.0,0.0,0.0,0.0,0.0,0.0,0.0,0.0,0.0,1769807843.1777484,0.0,-44.0
148.0,-37620.466961916325,-6190.449737364022,-48696.762168021465,-62366.86555944271,-61357.2819658854,-21595.517885150657,-37493.7996260881,-51325.23790898775,0.026000000000000002,1.008,-0.046,192.0,0.0,0.0,0.0,0.0,0.0,0.0,0.0,0.0,0.0,1769807843.1777527,0.0,-44.0
149.0,-37595.94709824886,-6169.036766175838,-48252.94593011689,-62304.9065238126,-61348.251861125456,-22089.044402723837,-37093.43517940464,-51166.652282077346,0.026000000000000002,1.008,-0.046,192.0,0.0,0.0,0.0,0.0,0.0,0.0,0.0,0.0,0.0,1769807843.1777568,0.0,-44.0
150.0,-37985.89563201614,-6551.117485894858,-48241.07715381112,-62674.22439744764,-61733.75239774614,-21220.38855795724,-37124.05706930841,-51455.794448351204,0.032,1.006,-0.046,192.0,1.0,0.0,31.0,112.0,254.0,144.0,0.0,0.0,0.0,1769807843.177761,0.0,-44.0
151.0,-38065.19962134357,-6616.921021571282,-48635.6301469362,-62782.20567491122,-61806.46262245925,-20662.22079541931,-37488.9492975413,-51637.51413077285,0.032,1.006,-0.046,192.0,0.0,0.0,0.0,0.0,0.0,0.0,0.0,0.0,0.0,1769807843.1777651,0.0,-44.0
152.0,-37700.95559369989,-6271.5642179923325,-48749.78050586945,-62442.459159190556,-61429.81337664287,-21391.021775129055,-37541.408841777906,-51389.0297876632,0.032,1.006,-0.046,192.0,0.0,0.0,0.0,0.0,0.0,0.0,0.0,0.0,0.0,1769807843.1777692,0.0,-44.0
153.0,-37608.240557699275,-6182.470164593478,-48355.62984414457,-62307.253456980405,-61333.767930718415,-22104.243588953446,-37178.863546712826,-51186.05359626456,0.032,1.006,-0.046,192.0,0.0,0.0,0.0,0.0,0.0,0.0,0.0,0.0,0.0,1769807843.1777737,0.0,-44.0
154.0,-37946.89183794163,-6497.115671290836,-48210.07528425161,-62611.28188506149,-61678.18596103024,-21381.835208157925,-37085.27679267845,-51394.88594471049,0.032,1.006,-0.046,192.0,0.0,0.0,0.0,0.0,0.0,0.0,0.0,0.0,0.0,1769807843.1777775,0.0,-44.0
155.0,-38116.92155801315,-6659.836370925471,-48582.947085255044,-62792.59923608294,-61839.02911413064,-20644.674676021896,-37436.69091900479,-51629.75807544686,0.032,1.006,-0.046,192.0,0.0,0.0,0.0,0.0,0.0,0.0,0.0,0.0,0.0,1769807843.1777818,0.0,-44.0
156.0,-37805.22648158389,-6345.861416561773,-48774.076852092374,-62507.63684602224,-61513.99004626156,-21173.136970178723,-37568.34269384655,-51447.211378480366,0.032,1.006,-0.046,192.0,0.0,0.0,0.0,0.0,0.0,0.0,0.0,0.0,0.0,1769807843.177786,0.0,-44.0
157.0,-37591.09676970205,-6152.02708864535,-48443.472199853924,-62290.28848293883,-61323.217907335515,-22069.330164114257,-37258.01107382907,-51195.91071556935,0.032,1.006,-0.046,192.0,0.0,0.0,0.0,0.0,0.0,0.0,0.0,0.0,0.0,1769807843.1777902,0.0,-44.0
158.0,-37894.11936928265,-6457.843656282861,-48203.749740570755,-62555.447227412136,-61632.34253315241,-21545.047646170577,-37075.91141175168,-51358.43024950389,0.032,1.006,-0.046,192.0,0.0,0.0,0.0,0.0,0.0,0.0,0.0,0.0,0.0,1769807843.1777945,0.0,-44.0
159.0,-38128.32094768536,-6677.941283934269,-48516.741218178424,-62798.25422743014,-61862.4537423198,-20676.57061535962,-37384.00785732363,-51627.1876248345,0.032,1.006,-0.046,192.0,0.0,0.0,0.0,0.0,0.0,0.0,0.0,0.0,0.0,1769807843.1777985,0.0,-44.0
160.0,-37858.40128164307,-6416.716446485097,-48763.81740138739,-62567.56187290691,-61584.50980001805,-20990.72438367896,-37574.534127060666,-51501.0567308732,0.036000000000000004,1.014,-0.052000000000000005,192.0,1.0,32.0,31.0,176.0,254.0,96.0,0.0,0.0,0.0,1769807843.1778023,0.0,-44.0
161.0,-37540.58182723306,-6111.302210247781,-48495.7976336238,-62253.005773187375,-61280.10139228123,-22006.67822440603,-37304.748571485114,-51183.84077356348,0.036000000000000004,1.014,-0.052000000000000005,192.0,0.0,0.0,0.0,0.0,0.0,0.0,0.0,0.0,0.0,1769807843.1778066,0.0,-44.0
162.0,-37801.65020247104,-6354.690355621619,-48179.38633911447,-62468.90127288119,-61540.96860181911,-21726.052072769653,-37047.368234082256,-51278.27689388715,0.036000000000000004,1.014,-0.052000000000000005,192.0,0.0,0.0,0.0,0.0,0.0,0.0,0.0,0.0,0.0,1769807843.177811,0.0,-44.0
163.0,-38088.13251115471,-6632.79076013455,-48420.49460655387,-62770.09102941645,-61836.704532707285,-20769.82209322716,-37305.37442032986,-51581.54536265676,0.036000000000000004,1.014,-0.052000000000000005,192.0,0.0,0.0,0.0,0.0,0.0,0.0,0.0,0.0,0.0,1769807843.1778152,0.0,-44.0
164.0,-37894.298183238294,-6461.263473184523,-48729.79804632641,-62617.56272525343,-61641.61850710136,-20847.293239509254,-37559.938437931356,-51534.49494057834,0.036000000000000004,1.014,-0.052000000000000005,192.0,0.0,0.0,0.0,0.0,0.0,0.0,0.0,0.0,0.0,1769807843.1778193,0.0,-44.0
165.0,-37547.28735056965,-6080.0321197548055,-48557.42139308708,-62252.715200509454,-61266.15390374111,-21891.723202672387,-37362.77370009109,-51200.67163713833,0.036000000000000004,1.014,-0.052000000000000005,192.0,0.0,0.0,0.0,0.0,0.0,0.0,0.0,0.0,0.0,1769807843.1778233,0.0,-44.0
166.0,-37709.739829270824,-6235.868482097207,-48158.37569932648,-62366.10560013123,-61433.07673133335,-21880.368516489092,-37023.38481228171,-51195.731901613704,0.036000000000000004,1.014,-0.052000000000000005,192.0,0.0,0.0,0.0,0.0,0.0,0.0,0.0,0.0,0.0,1769807843.1778276,0.0,-44.0
167.0,-38066.11604286624,-6605.834556321449,-48321.342268150125,-62715.17279328976,-61777.67357560081,-20893.494295298373,-37206.93733774869,-51515.1606816245,0.036000000000000004,1.014,-0.052000000000000005,192.0,0.0,0.0,0.0,0.0,0.0,0.0,0.0,0.0,0.0,1769807843.177832,0.0,-44.0
168.0,-37999.57489962279,-6548.658794004774,-48703.06535995786,-62685.400269675294,-61702.191734575244,-20724.24688628279,-37530.94822537282,-51571.777650329794,0.036000000000000004,1.014,-0.052000000000000005,192.0,0.0,0.0,0.0,0.0,0.0,0.0,0.0,0.0,0.0,1769807843.177836,0.0,-44.0
169.0,-37643.06457556064,-6192.528449598366,-48682.5911620368,-62345.787864421356,-61346.977811691504,-21701.040470724165,-37473.83951828951,-51292.04556847162,0.036000000000000004,1.014,-0.052000000000000005,192.0,0.0,0.0,0.0,0.0,0.0,0.0,0.0,0.0,0.0,1769807843.17784,0.0,-44.0
170.0,-37674.0440933757,-6228.85003433824,-48222.145226257475,-62334.41082649361,-61394.519972147944,-21967.897947776073,-37073.698589050604,-51177.3811194159,0.034,1.012,-0.056,192.0,1.0,16.0,31.0,160.0,254.0,64.0,0.0,0.0,0.0,1769807843.177844,0.0,-44.0
171.0,-38037.19288554107,-6593.563448615486,-48275.49884027229,-62692.77634534554,-61763.994307994166,-21019.28991309284,-37166.52538377349,-51480.895457374514,0.034,1.012,-0.056,192.0,0.0,0.0,0.0,0.0,0.0,0.0,0.0,0.0,0.0,1769807843.1778483,0.0,-44.0
172.0,-38041.41736524312,-6601.855945808405,-48674.74569973299,-62736.630467966854,-61768.91169177434,-20626.74857696874,-37518.878283366954,-51608.0321798363,0.034,1.012,-0.056,192.0,0.0,0.0,0.0,0.0,0.0,0.0,0.0,0.0,0.0,1769807843.1778524,0.0,-44.0
173.0,-37670.803090429676,-6219.641115622654,-48728.38988642572,-62390.938388221075,-61381.66771908614,-21494.35388974594,-37514.407934475894,-51334.20095851433,0.034,1.012,-0.056,192.0,0.0,0.0,0.0,0.0,0.0,0.0,0.0,0.0,0.0,1769807843.1778567,0.0,-44.0
174.0,-37657.74967166778,-6203.32434217028,-48315.93314599194,-62343.463282998004,-61374.58221609381,-22016.378881499637,-37141.73729917256,-51196.26834348063,0.034,1.012,-0.056,192.0,0.0,0.0,0.0,0.0,0.0,0.0,0.0,0.0,0.0,1769807843.1778607,0.0,-44.0
175.0,-38000.6701351011,-6554.336137096422,-48251.135438816,-62658.60052807338,-61722.755339474126,-21166.766723008957,-37121.82189486288,-51443.41158192296,0.034,1.012,-0.056,192.0,0.0,0.0,0.0,0.0,0.0,0.0,0.0,0.0,0.0,1769807843.1778653,0.0,-44.0
176.0,-38073.04508364738,-6622.2630884961,-48613.27840248089,-62751.7625989631,-61779.26054945714,-20580.301651990612,-37452.18067791232,-51597.9291913425,0.034,1.012,-0.056,192.0,0.0,0.0,0.0,0.0,0.0,0.0,0.0,0.0,0.0,1769807843.1778696,0.0,-44.0
177.0,-37741.90398954201,-6284.952912921061,-48755.12257279427,-62450.10345579428,-61432.763806910974,-21268.511863769516,-37541.744117944734,-51390.23678186379,0.034,1.012,-0.056,192.0,0.0,0.0,0.0,0.0,0.0,0.0,0.0,0.0,0.0,1769807843.1778736,0.0,-44.0
178.0,-37598.226976183294,-6140.6053472286885,-48338.754277080814,-62271.825942018746,-61296.06053782231,-22014.255465776383,-37161.56329650441,-51149.26262489112,0.034,1.012,-0.056,192.0,0.0,0.0,0.0,0.0,0.0,0.0,0.0,0.0,0.0,1769807843.177878,0.0,-44.0
179.0,-37922.77430567436,-6475.23331346909,-48180.03453970367,-62577.15077127824,-61635.53883260952,-21314.9811404921,-37058.43234758763,-51358.58671171507,0.034,1.012,-0.056,192.0,0.0,0.0,0.0,0.0,0.0,0.0,0.0,0.0,0.0,1769807843.1778822,0.0,-44.0
180.0,-38111.35597364378,-6665.111382616924,-48564.32808212377,-62797.315454163014,-61835.788111184615,-20541.521375360655,-37421.60349149746,-51621.756150931855,0.034,1.008,-0.054,192.0,1.0,16.0,31.0,128.0,254.0,80.0,0.0,0.0,0.0,1769807843.1778865,0.0,-44.0
181.0,-37836.988310454886,-6380.283103022945,-48789.879535422275,-62536.47059636958,-61531.71497961462,-21027.180078885565,-37591.25323191324,-51476.04512882771,0.034,1.008,-0.054,192.0,0.0,0.0,0.0,0.0,0.0,0.0,0.0,0.0,0.0,1769807843.1778905,0.0,-44.0
182.0,-37602.853787285545,-6154.195207857515,-48429.74822875836,-62272.56354958577,-61285.041127805845,-21962.935860506997,-37246.94696032369,-51172.95547401375,0.034,1.008,-0.054,192.0,0.0,0.0,0.0,0.0,0.0,0.0,0.0,0.0,0.0,1769807843.1778948,0.0,-44.0
183.0,-37923.33309928574,-6478.876647815305,-48219.68653436739,-62567.606576395825,-61634.89063202032,-21473.745581358147,-37095.55859512789,-51361.4700867498,0.034,1.008,-0.054,192.0,0.0,0.0,0.0,0.0,0.0,0.0,0.0,0.0,0.0,1769807843.1778991,0.0,-44.0
184.0,-38107.91380499766,-6661.870379670904,-48484.375892207136,-62770.78393349457,-61828.52379423664,-20587.87889336096,-37366.68525537077,-51601.97485708891,0.034,1.008,-0.054,192.0,0.0,0.0,0.0,0.0,0.0,0.0,0.0,0.0,0.0,1769807843.1779032,0.0,-44.0
185.0,-37867.96782826994,-6423.913708199705,-48748.59586341332,-62569.417067696704,-61580.620596482826,-20839.067797549702,-37572.656580526425,-51498.86625991658,0.034,1.008,-0.054,192.0,0.0,0.0,0.0,0.0,0.0,0.0,0.0,0.0,0.0,1769807843.1779075,0.0,-44.0
186.0,-37584.07832194309,-6134.92800413704,-48532.83447418624,-62285.460506136485,-61298.36276750121,-21829.406539130992,-37346.79220280555,-51216.31785825704,0.034,1.008,-0.054,192.0,0.0,0.0,0.0,0.0,0.0,0.0,0.0,0.0,0.0,1769807843.1779115,0.0,-44.0
187.0,-37830.79687724076,-6393.403577018211,-48217.45135992186,-62491.43183129214,-61557.66535492723,-21569.053419715576,-37088.69660958012,-51304.54019362214,0.034,1.008,-0.054,192.0,0.0,0.0,0.0,0.0,0.0,0.0,0.0,0.0,0.0,1769807843.177916,0.0,-44.0
188.0,-38108.785523031416,-6667.614777995918,-48425.6802112675,-62771.7674102506,-61838.62678273044,-20591.723393407276,-37306.00026917461,-51584.227571991396,0.034,1.008,-0.054,192.0,0.0,0.0,0.0,0.0,0.0,0.0,0.0,0.0,0.0,1769807843.17792,0.0,-44.0
189.0,-37952.14449788863,-6504.737616150095,-48755.81547687238,-62660.94746124119,-61682.0081093321,-20630.146042125947,-37576.88106022848,-51569.67658635099,0.034,1.008,-0.054,192.0,0.0,0.0,0.0,0.0,0.0,0.0,0.0,0.0,0.0,1769807843.1779242,0.0,-44.0
190.0,-37595.63417382648,-6171.607216788199,-48625.75067588696,-62319.12223328617,-61318.99342763346,-21687.651775795435,-37417.803694940056,-51263.18946637982,0.038,1.006,-0.052000000000000005,192.0,1.0,48.0,31.0,112.0,254.0,96.0,0.0,0.0,0.0,1769807843.1779284,0.0,-44.0
191.0,-37723.307338155195,-6298.118090405237,-48207.7283510838,-62396.10164119025,-61449.43820827463,-21757.433921984903,-37048.93285619412,-51224.1409688164,0.038,1.006,-0.052000000000000005,192.0,0.0,0.0,0.0,0.0,0.0,0.0,0.0,0.0,0.0,1769807843.1779327,0.0,-44.0
192.0,-38084.35506634177,-6648.593443464451,-48348.47728591887,-62752.52255827458,-61811.46941321724,-20789.625738814564,-37216.34742216438,-51536.2160249014,0.038,1.006,-0.052000000000000005,192.0,0.0,0.0,0.0,0.0,0.0,0.0,0.0,0.0,0.0,1769807843.1779373,0.0,-44.0
193.0,-38035.583559940285,-6593.027006748558,-48738.917558064175,-62740.72083720218,-61752.55021483305,-20573.3055559761,-37559.11142338651,-51620.727970686916,0.038,1.006,-0.052000000000000005,192.0,0.0,0.0,0.0,0.0,0.0,0.0,0.0,0.0,0.0,1769807843.177941,0.0,-44.0
194.0,-37612.75561007924,-6169.349690598213,-48670.96825492004,-62335.12608231617,-61323.66494222462,-21531.6813029863,-37452.828878501525,-51286.122356190965,0.038,1.006,-0.052000000000000005,192.0,0.0,0.0,0.0,0.0,0.0,0.0,0.0,0.0,0.0,1769807843.1779451,0.0,-44.0
195.0,-37645.52326745073,-6211.683894596565,-48212.53397614169,-62324.441948466534,-61371.56473059234,-21824.287989650726,-37047.43528931562,-51166.518171610616,0.038,1.006,-0.052000000000000005,192.0,0.0,0.0,0.0,0.0,0.0,0.0,0.0,0.0,0.0,1769807843.1779497,0.0,-44.0
196.0,-38048.458164746546,-6625.191167019745,-48285.87004969955,-62711.97649383265,-61783.932064048306,-20860.59252746016,-37159.03754938097,-51486.01400685478,0.038,1.006,-0.052000000000000005,192.0,0.0,0.0,0.0,0.0,0.0,0.0,0.0,0.0,0.0,1769807843.1779537,0.0,-44.0
197.0,-38046.75943216794,-6614.64114363684,-48668.77778396342,-62747.828691938965,-61775.01371801063,-20430.097929250947,-37505.57899541605,-51607.02635133581,0.038,1.006,-0.052000000000000005,192.0,0.0,0.0,0.0,0.0,0.0,0.0,0.0,0.0,0.0,1769807843.177958,0.0,-44.0
198.0,-37667.29386655019,-6229.632345394176,-48729.08279050384,-62404.081213960795,-61391.34602443529,-21268.377753302786,-37512.57509143056,-51341.912310351414,0.038,1.006,-0.052000000000000005,192.0,0.0,0.0,0.0,0.0,0.0,0.0,0.0,0.0,0.0,1769807843.177962,0.0,-44.0
199.0,-37618.14238049297,-6174.5352953118445,-48298.632895783536,-62311.41088144909,-61345.90492795765,-21840.761225314287,-37122.53715068545,-51161.51138085263,0.038,1.006,-0.052000000000000005,192.0,0.0,0.0,0.0,0.0,0.0,0.0,0.0,0.0,0.0,1769807843.177966,0.0,-44.0
200.0,-37987.79553029484,-6532.967869397148,-48229.11897052753,-62648.74340876859,-61722.12949062938,-21025.615456773696,-37105.63923187724,-51410.9344972294,0.036000000000000004,1.006,-0.052000000000000005,192.0,1.0,32.0,31.0,112.0,254.0,96.0,0.0,0.0,0.0,1769807843.1779704,0.0,-44.0
201.0,-38075.19085111509,-6645.821827151994,-48614.35128621475,-62777.33299461997,-61818.64432318739,-20412.864734275907,-37468.02806473113,-51612.77074966082,0.036000000000000004,1.006,-0.052000000000000005,192.0,0.0,0.0,0.0,0.0,0.0,0.0,0.0,0.0,0.0,1769807843.1779745,0.0,-44.0
202.0,-37741.12167848607,-6305.62827654222,-48772.02049160248,-62476.97025262955,-61468.68306025065,-21083.193550490567,-37569.86261246951,-51415.382494376005,0.036000000000000004,1.006,-0.052000000000000005,192.0,0.0,0.0,0.0,0.0,0.0,0.0,0.0,0.0,0.0,1769807843.1779785,0.0,-44.0
203.0,-37595.18713893737,-6157.212693358982,-48381.33435026817,-62295.83171556374,-61320.04395962286,-21867.046876793727,-37212.32410816242,-51183.86312530794,0.036000000000000004,1.006,-0.052000000000000005,192.0,0.0,0.0,0.0,0.0,0.0,0.0,0.0,0.0,0.0,1769807843.1779828,0.0,-44.0
204.0,-37931.782058689845,-6469.578322121897,-48196.30660966714,-62582.96222483662,-61648.59225137142,-21201.166057725677,-37083.86863277777,-51375.618740990016,0.036000000000000004,1.006,-0.052000000000000005,192.0,0.0,0.0,0.0,0.0,0.0,0.0,0.0,0.0,0.0,1769807843.177987,0.0,-44.0
205.0,-38076.33079008231,-6623.715951885695,-48509.52160471935,-62752.097875129926,-61794.70560487576,-20413.043548231548,-37387.22650852519,-51590.68722613898,0.036000000000000004,1.006,-0.052000000000000005,192.0,0.0,0.0,0.0,0.0,0.0,0.0,0.0,0.0,0.0,1769807843.1779912,0.0,-44.0
206.0,-37805.13707460607,-6360.59121615782,-48753.5579506824,-62522.21018340709,-61521.85786030983,-20849.953097099435,-37568.38739733546,-51457.403773951984,0.036000000000000004,1.006,-0.052000000000000005,192.0,0.0,0.0,0.0,0.0,0.0,0.0,0.0,0.0,0.0,1769807843.1779952,0.0,-44.0
207.0,-37563.849993211035,-6096.125375762627,-48430.754057258855,-62256.53734881132,-61274.44640093403,-21790.805076456676,-37256.20058252819,-51165.15471519884,0.036000000000000004,1.006,-0.052000000000000005,192.0,0.0,0.0,0.0,0.0,0.0,0.0,0.0,0.0,0.0,1769807843.1779995,0.0,-44.0
208.0,-37883.01055228836,-6412.98370516106,-48188.72936829679,-62533.1625381902,-61593.94223617819,-21356.331867734418,-37066.97071396956,-51322.57805139757,0.036000000000000004,1.006,-0.052000000000000005,192.0,0.0,0.0,0.0,0.0,0.0,0.0,0.0,0.0,0.0,1769807843.1780035,0.0,-44.0
209.0,-38115.78161904593,-6658.674080213796,-48475.770470591844,-62788.82179127,-61835.18461408432,-20473.14738907187,-37355.934066287766,-51600.58904893268,0.036000000000000004,1.006,-0.052000000000000005,192.0,0.0,0.0,0.0,0.0,0.0,0.0,0.0,0.0,0.0,1769807843.1780076,0.0,-44.0
210.0,-37858.17776419852,-6410.837937693351,-48735.31892720687,-62574.33445147687,-61580.71000346065,-20721.85524962607,-37552.09297562754,-51491.62429471306,0.024,1.01,-0.052000000000000005,192.0,0.0,192.0,31.0,144.0,254.0,96.0,0.0,0.0,0.0,1769807843.178012,0.0,-44.0
211.0,-37549.656635481915,-6095.29836121778,-48503.374874994144,-62260.001869201886,-61260.54361588283,-21763.31243077665,-37305.32971684095,-51172.01670074662,0.024,1.01,-0.052000000000000005,192.0,0.0,0.0,0.0,0.0,0.0,0.0,0.0,0.0,0.0,1769807843.178016,0.0,-44.0
212.0,-37782.181833050476,-6338.619451358253,-48178.24640014725,-62467.02372634694,-61511.26313343801,-21575.423666885337,-37036.32647232133,-51252.90766393038,0.024,1.01,-0.052000000000000005,192.0,0.0,0.0,0.0,0.0,0.0,0.0,0.0,0.0,0.0,1769807843.17802,0.0,-44.0
213.0,-38105.63392706322,-6661.400993037342,-48407.84351919217,-62793.068622716506,-61840.616087986964,-20600.84290514504,-37288.49885326611,-51578.37141494411,0.024,1.01,-0.052000000000000005,192.0,0.0,0.0,0.0,0.0,0.0,0.0,0.0,0.0,0.0,1769807843.1780243,0.0,-44.0
214.0,-37974.65270455512,-6505.564630694942,-48734.26839521747,-62671.139856712805,-61679.616472675385,-20582.51447469169,-37553.00939715021,-51550.744658797346,0.024,1.01,-0.052000000000000005,192.0,0.0,0.0,0.0,0.0,0.0,0.0,0.0,0.0,0.0,1769807843.1780343,0.0,-44.0
215.0,-37600.39509539546,-6136.984364626928,-48605.76821634391,-62307.678140125056,-61295.99348258895,-21609.644187646412,-37389.975773093196,-51228.83483515201,0.024,1.01,-0.052000000000000005,192.0,0.0,0.0,0.0,0.0,0.0,0.0,0.0,0.0,0.0,1769807843.1780388,0.0,-44.0
216.0,-37721.22862592085,-6253.928691617095,-48188.25998166323,-62388.434992842085,-61425.25362077399,-21702.269816669206,-37027.54223675039,-51190.8815730669,0.024,1.01,-0.052000000000000005,192.0,0.0,0.0,0.0,0.0,0.0,0.0,0.0,0.0,0.0,1769807843.1780431,0.0,-44.0
217.0,-38075.52612728192,-6612.920059313782,-48309.60760231109,-62735.69169469973,-61786.18959023829,-20734.685150943416,-37183.06567467042,-51499.58151573915,0.024,1.01,-0.052000000000000005,192.0,0.0,0.0,0.0,0.0,0.0,0.0,0.0,0.0,0.0,1769807843.1780477,0.0,-44.0
218.0,-38027.46987670301,-6571.770497771561,-48694.90697323167,-62721.23011603715,-61733.305362857034,-20495.34267131599,-37515.324355998564,-51579.35489170014,0.024,1.01,-0.052000000000000005,192.0,0.0,0.0,0.0,0.0,0.0,0.0,0.0,0.0,0.0,1769807843.1780517,0.0,-44.0
219.0,-37648.63015993001,-6183.31953088278,-48691.84478424129,-62367.647870498644,-61354.532701317396,-21441.71553155369,-37465.27880016313,-51295.04070222863,0.024,1.01,-0.052000000000000005,192.0,0.0,0.0,0.0,0.0,0.0,0.0,0.0,0.0,0.0,1769807843.178056,0.0,-44.0
220.0,-37687.41043655997,-6224.647906380643,-48261.59605522109,-62368.54194027686,-61392.59772212479,-21793.487285791314,-37080.73938855402,-51190.501593411165,0.016,1.01,-0.058,192.0,0.0,128.0,31.0,144.0,254.0,48.0,0.0,0.0,0.0,1769807843.1780603,0.0,-44.0
221.0,-38053.64376946018,-6595.016312005081,-48288.57461077865,-62733.38946502084,-61776.019546511125,-20876.574024745707,-37152.846116166846,-51489.90321039,0.016,1.01,-0.058,192.0,0.0,0.0,0.0,0.0,0.0,0.0,0.0,0.0,0.0,1769807843.1780643,0.0,-44.0
222.0,-38045.798307156365,-6600.447785907721,-48665.67089148413,-62776.79655275304,-61784.17793323731,-20422.43128090278,-37491.38563768693,-51618.22457530792,0.016,1.01,-0.058,192.0,0.0,0.0,0.0,0.0,0.0,0.0,0.0,0.0,0.0,1769807843.178072,0.0,-44.0
223.0,-37653.99457859929,-6208.04056025035,-48711.290801917414,-62402.80716452684,-61376.45976262805,-21239.767520399993,-37485.08244575053,-51329.39533345644,0.016,1.01,-0.058,192.0,0.0,0.0,0.0,0.0,0.0,0.0,0.0,0.0,0.0,1769807843.178076,0.0,-44.0
224.0,-37606.139493720475,-6162.577112028255,-48288.52990728973,-62308.9074860701,-61323.73199745799,-21846.885603295043,-37108.29908946742,-51152.324813881496,0.016,1.01,-0.058,192.0,0.0,0.0,0.0,0.0,0.0,0.0,0.0,0.0,0.0,1769807843.17808,0.0,-44.0
225.0,-37968.23775389645,-6512.806595898462,-48215.12677849851,-62651.96205997015,-61698.481344995664,-21049.50947159642,-37085.321496167366,-51410.04042745119,0.016,1.01,-0.058,192.0,0.0,0.0,0.0,0.0,0.0,0.0,0.0,0.0,0.0,1769807843.1780844,0.0,-44.0
226.0,-38083.93038319712,-6622.531309429563,-48598.03451276237,-62796.95782625173,-61814.33043650752,-20398.5149143356,-37446.14570690939,-51620.21388056444,0.016,1.01,-0.058,192.0,0.0,0.0,0.0,0.0,0.0,0.0,0.0,0.0,0.0,1769807843.1780884,0.0,-44.0
227.0,-37749.92826580146,-6293.021892669427,-48756.88836060624,-62489.53193301344,-61467.14078988323,-21021.480384049464,-37545.52156275768,-51412.387360618995,0.016,1.01,-0.058,192.0,0.0,0.0,0.0,0.0,0.0,0.0,0.0,0.0,0.0,1769807843.1780927,0.0,-44.0
228.0,-37567.694493257346,-6110.944582336496,-48365.106983793616,-62288.85797129369,-61291.411374975614,-21835.50856536729,-37176.11428214482,-51153.33064238199,0.016,1.01,-0.058,192.0,0.0,0.0,0.0,0.0,0.0,0.0,0.0,0.0,0.0,1769807843.1780968,0.0,-44.0
229.0,-37925.83649466473,-6458.156580705236,-48201.69338008087,-62619.79789969896,-61660.036344532535,-21209.14563049622,-37070.43523436013,-51374.83642993408,0.016,1.01,-0.058,192.0,0.0,0.0,0.0,0.0,0.0,0.0,0.0,0.0,0.0,1769807843.178101,0.0,-44.0
230.0,-38127.89626454071,-6662.518580260108,-48557.46609657599,-62844.47763496371,-61866.901739466404,-20398.291396891047,-37414.74150594968,-51643.504398286874,0.016,1.01,-0.058,192.0,0.0,0.0,0.0,0.0,0.0,0.0,0.0,0.0,0.0,1769807843.178105,0.0,-44.0
231.0,-37802.27605131579,-6349.392992185712,-48755.32373849437,-62564.92436706118,-61539.314572729425,-20813.31858793719,-37556.7644902187,-51469.4513642134,0.016,1.01,-0.064,192.0,0.0,128.0,31.0,144.0,254.0,0.0,0.0,0.0,0.0,1769807843.1781092,0.0,-44.0
232.0,-37574.37766484948,-6102.696788632487,-48457.39733664958,-62316.52943092936,-61293.646549421144,-21772.54370123669,-37266.08005357743,-51187.26059046514,0.016,1.01,-0.064,192.0,0.0,0.0,0.0,0.0,0.0,0.0,0.0,0.0,0.0,1769807843.1781132,0.0,-44.0
233.0,-37856.546086853275,-6388.59795196032,-48181.88973449347,-62559.33643094736,-61577.24548307008,-21379.085943589922,-37047.502344548986,-51318.554737395614,0.016,1.01,-0.064,192.0,0.0,0.0,0.0,0.0,0.0,0.0,0.0,0.0,0.0,1769807843.1781173,0.0,-44.0
234.0,-38103.06347645086,-6652.639109210862,-48452.39054589159,-62822.7293876087,-61832.3459425385,-20473.974403616718,-37320.9088827263,-51595.604609919144,0.016,1.01,-0.064,192.0,0.0,0.0,0.0,0.0,0.0,0.0,0.0,0.0,0.0,1769807843.178121,0.0,-44.0
235.0,-37888.79965410229,-6440.141074674258,-48740.21395924258,-62649.950402969174,-61617.52332657854,-20663.159568686435,-37549.72369071528,-51521.508577049804,0.016,1.01,-0.064,192.0,0.0,0.0,0.0,0.0,0.0,0.0,0.0,0.0,0.0,1769807843.1781256,0.0,-44.0
236.0,-37572.947153204346,-6119.281783018325,-48542.825703957766,-62328.28644851285,-61304.2189245485,-21695.29607239915,-37341.181914947265,-51217.43544547981,0.016,1.01,-0.064,192.0,0.0,0.0,0.0,0.0,0.0,0.0,0.0,0.0,0.0,1769807843.1781297,0.0,-44.0
237.0,-37783.94762086244,-6319.531061593421,-48188.28233340768,-62493.95757841559,-61516.80636606293,-21559.710390533255,-37047.52469629344,-51269.67147227186,0.016,1.01,-0.064,192.0,0.0,0.0,0.0,0.0,0.0,0.0,0.0,0.0,0.0,1769807843.1781335,0.0,-44.0
238.0,-38079.25886860596,-6623.760655374605,-48375.34408275415,-62801.04819548705,-61818.867840631945,-20594.092678319535,-37253.585428426915,-51564.0215950038,0.016,1.01,-0.064,192.0,0.0,0.0,0.0,0.0,0.0,0.0,0.0,0.0,0.0,1769807843.1781378,0.0,-44.0
239.0,-37953.53030604486,-6501.42955797071,-48720.36561016627,-62705.49448794061,-61682.09751630992,-20547.3998841524,-37537.09495509803,-51565.87678979359,0.016,1.01,-0.064,192.0,0.0,0.0,0.0,0.0,0.0,0.0,0.0,0.0,0.0,1769807843.178142,0.0,-44.0
240.0,-37569.97437119178,-6115.683152161021,-48603.17541398709,-62326.52066070088,-61290.629063919674,-21574.060210473563,-37385.66188641333,-51233.14872183189,0.016,1.01,-0.064,192.0,0.0,0.0,0.0,0.0,0.0,0.0,0.0,0.0,0.0,1769807843.178146,0.0,-44.0
241.0,-37701.11205591107,-6243.088095556271,-48198.094749223565,-62418.38633041219,-61433.99315285601,-21705.15319170394,-37037.779335710926,-51204.963172073745,0.018000000000000002,1.012,-0.06,192.0,0.0,144.0,31.0,160.0,254.0,32.0,0.0,0.0,0.0,1769807843.6581287,0.0,-44.0
242.0,-38036.74585065196,-6567.501314580598,-48297.76117774978,-62760.36802057839,-61779.84169481298,-20746.57627899364,-37167.30769482943,-51507.51638502078,0.018000000000000002,1.012,-0.06,192.0,0.0,0.0,0.0,0.0,0.0,0.0,0.0,0.0,0.0,1769807843.6581676,0.0,-44.0
243.0,-37971.18818416455,-6516.539337222498,-48661.78168794891,-62737.971572634175,-61713.30055156953,-20484.2338543217,-37485.70829459528,-51579.37724344459,0.018000000000000002,1.012,-0.06,192.0,0.0,0.0,0.0,0.0,0.0,0.0,0.0,0.0,0.0,1769807843.658188,0.0,-44.0
244.0,-37579.47386258529,-6142.795818185308,-48654.09268785628,-62361.34467856225,-61310.36565427371,-21425.219944145676,-37424.442163043284,-51271.57137055056,0.018000000000000002,1.012,-0.06,192.0,0.0,0.0,0.0,0.0,0.0,0.0,0.0,0.0,0.0,1769807843.6582093,0.0,-44.0
245.0,-37602.6749733299,-6163.091202150727,-48223.888662324985,-62344.69262894305,-61340.0264191659,-21838.928382268954,-37040.90857993467,-51151.22957840319,0.018000000000000002,1.012,-0.06,192.0,0.0,0.0,0.0,0.0,0.0,0.0,0.0,0.0,0.0,1769807843.6582303,0.0,-44.0
246.0,-37963.47683232747,-6537.125293865835,-48223.15105475796,-62696.66554888077,-61719.55904001702,-20951.362961693165,-37091.110597981286,-51439.63413711001,0.018000000000000002,1.012,-0.06,192.0,0.0,0.0,0.0,0.0,0.0,0.0,0.0,0.0,0.0,1769807843.6582472,0.0,-44.0
247.0,-38042.11026932124,-6619.893803583837,-48648.61651046473,-62808.781899068585,-61801.58994216799,-20458.350534242458,-37480.27682069264,-51625.55594748926,0.018000000000000002,1.012,-0.06,192.0,0.0,0.0,0.0,0.0,0.0,0.0,0.0,0.0,0.0,1769807843.658268,0.0,-44.0
248.0,-37665.05869210466,-6238.371877476201,-48738.626985386254,-62453.14329304019,-61412.289608989915,-21238.672284921682,-37512.5527396861,-51366.78980193017,0.018000000000000002,1.012,-0.06,192.0,0.0,0.0,0.0,0.0,0.0,0.0,0.0,0.0,0.0,1769807843.6582887,0.0,-44.0
249.0,-37549.83544943755,-6114.677323660532,-48280.729148474835,-62301.37494818866,-61296.88755236716,-21893.33252827317,-37097.257327706495,-51139.316098608506,0.018000000000000002,1.012,-0.06,192.0,0.0,0.0,0.0,0.0,0.0,0.0,0.0,0.0,0.0,1769807843.658306,0.0,-44.0
250.0,-37914.90649162608,-6460.972900506605,-48179.02871120319,-62638.05927491895,-61671.4580859492,-21133.395568537184,-37051.90563820668,-51387.21929636232,0.018000000000000002,1.012,-0.06,192.0,0.0,0.0,0.0,0.0,0.0,0.0,0.0,0.0,0.0,1769807843.658327,0.0,-44.0
251.0,-38053.30849329335,-6606.952143544215,-48569.33487288176,-62801.0705472315,-61809.05542481607,-20455.08717955198,-37415.05443037205,-51611.608458949144,0.016,1.014,-0.064,192.0,0.0,128.0,31.0,176.0,254.0,0.0,0.0,0.0,0.0,1769807843.6583447,0.0,-44.0
252.0,-37703.28017512324,-6276.973340150516,-48730.02156377096,-62486.581502745335,-61457.574243256364,-21046.0673029503,-37515.63728042094,-51400.96561920233,0.016,1.014,-0.064,192.0,0.0,0.0,0.0,0.0,0.0,0.0,0.0,0.0,0.0,1769807843.6583576,0.0,-44.0
253.0,-37495.386599944424,-6067.090459715183,-48340.65417535951,-62261.52178782485,-61253.54751986832,-21904.15077258954,-37150.119203343296,-51127.31321183601,0.016,1.014,-0.064,192.0,0.0,0.0,0.0,0.0,0.0,0.0,0.0,0.0,0.0,1769807843.6583745,0.0,-44.0
254.0,-37816.491760789366,-6347.470742162555,-48118.47783547376,-62536.60470683631,-61569.86940739983,-21333.443681412184,-36987.934945575595,-51292.02321672717,0.016,1.014,-0.064,192.0,0.0,0.0,0.0,0.0,0.0,0.0,0.0,0.0,0.0,1769807843.65838,0.0,-44.0
255.0,-38045.731251922996,-6594.859849793894,-48468.79672632179,-62779.27759638758,-61801.07585204552,-20503.232837108713,-37332.88941775435,-51572.38114743008,0.016,1.014,-0.064,192.0,0.0,0.0,0.0,0.0,0.0,0.0,0.0,0.0,0.0,1769807843.6583843,0.0,-44.0
0.0,-37778.449091726434,-6359.563035912876,-48731.429723671645,-62553.50262564453,-61532.273773226,-20874.2270915779,-37531.9093503844,-51455.36976520655,0.016,1.014,-0.064,192.0,0.0,0.0,0.0,0.0,0.0,0.0,0.0,0.0,0.0,1769807843.658389,0.0,-44.0
1.0,-37482.89197479391,-6068.833895782697,-48418.25943210834,-62252.379924342626,-61232.51452833588,-21861.391885446537,-37220.437791399694,-51134.711639250716,0.016,1.014,-0.064,192.0,0.0,0.0,0.0,0.0,0.0,0.0,0.0,0.0,0.0,1769807843.6583936,0.0,-44.0
2.0,-37739.06531799619,-6292.10547114676,-48105.17854752285,-62467.67192693614,-61493.47114485159,-21518.53847724658,-36971.66287561213,-51233.72986718773,0.016,1.014,-0.064,192.0,0.0,0.0,0.0,0.0,0.0,0.0,0.0,0.0,0.0,1769807843.6583982,0.0,-44.0
3.0,-38045.59714145627,-6586.433242134242,-48385.24590554785,-62769.12990440487,-61788.80474433956,-20593.489181219244,-37260.46976571915,-51542.60862381561,0.016,1.014,-0.064,192.0,0.0,0.0,0.0,0.0,0.0,0.0,0.0,0.0,0.0,1769807843.6584027,0.0,-44.0
4.0,-37847.62774081561,-6405.227649835068,-48699.287915144916,-62614.656998474245,-61587.124954119325,-20741.72595044684,-37510.74224838522,-51491.26666680178,0.016,1.014,-0.064,192.0,0.0,0.0,0.0,0.0,0.0,0.0,0.0,0.0,0.0,1769807843.6584074,0.0,-44.0
5.0,-37510.27286175166,-6092.057358271762,-48518.641116457125,-62294.602369618704,-61257.81670305928,-21777.416381527946,-37312.07994366645,-51185.51715439763,0.018000000000000002,1.01,-0.062,192.0,0.0,144.0,31.0,144.0,254.0,16.0,0.0,0.0,0.0,1769807843.6584125,0.0,-44.0
6.0,-37723.53085559975,-6296.106433404259,-48160.834391216566,-62455.17730178563,-61461.418743302675,-21685.707174027822,-37010.510207475454,-51225.70559092827,0.018000000000000002,1.01,-0.062,192.0,0.0,0.0,0.0,0.0,0.0,0.0,0.0,0.0,0.0,1769807843.658419,0.0,-44.0
7.0,-38052.14620258167,-6605.991018532636,-48338.62016661408,-62771.5662445505,-61784.35674719296,-20720.87177287004,-37208.032573227,-51524.727228251366,0.018000000000000002,1.01,-0.062,192.0,0.0,0.0,0.0,0.0,0.0,0.0,0.0,0.0,0.0,1769807843.6584244,0.0,-44.0
8.0,-37906.34577349971,-6467.253740698546,-48668.241342096495,-62668.50235086708,-61647.27349844856,-20640.874879464493,-37484.38954167242,-51523.252013117315,0.018000000000000002,1.01,-0.062,192.0,0.0,0.0,0.0,0.0,0.0,0.0,0.0,0.0,0.0,1769807843.6584294,0.0,-44.0
9.0,-37530.54589397262,-6084.793041323786,-48585.98692250096,-62301.732576099945,-61261.907072294605,-21654.168862601386,-37365.05357802553,-51209.88055585392,0.018000000000000002,1.01,-0.062,192.0,0.0,0.0,0.0,0.0,0.0,0.0,0.0,0.0,0.0,1769807843.6584349,0.0,-44.0
10.0,-37639.66711040343,-6197.915220012095,-48162.55547553962,-62356.539053504355,-61371.20710268106,-21842.03527474824,-37002.01654458243,-51151.11781968091,0.018000000000000002,1.01,-0.062,192.0,0.0,0.0,0.0,0.0,0.0,0.0,0.0,0.0,0.0,1769807843.6584399,0.0,-44.0
11.0,-38017.88097833168,-6575.816163517972,-48268.72626170234,-62732.04836035352,-61755.74651429016,-20888.75572547385,-37139.837400893855,-51469.94310259141,0.018000000000000002,1.01,-0.062,192.0,0.0,0.0,0.0,0.0,0.0,0.0,0.0,0.0,0.0,1769807843.6584451,0.0,-44.0
12.0,-38009.38731543867,-6573.066898949969,-48677.24909511198,-62759.69746824473,-61749.62213630941,-20570.846864086016,-37499.20874824628,-51585.121641769605,0.018000000000000002,1.01,-0.062,192.0,0.0,0.0,0.0,0.0,0.0,0.0,0.0,0.0,0.0,1769807843.6584516,0.0,-44.0
13.0,-37633.54273242268,-6202.810252047808,-48696.58335406582,-62401.46605985953,-61365.61916656723,-21471.800979590535,-37473.28072467813,-51304.00375175521,0.018000000000000002,1.01,-0.062,192.0,0.0,0.0,0.0,0.0,0.0,0.0,0.0,0.0,0.0,1769807843.6584573,0.0,-44.0
14.0,-37614.09671474656,-6183.5206965828775,-48245.39104049099,-62345.00555336542,-61360.36650662023,-21915.66192098402,-37072.22337391655,-51153.48710459317,0.018000000000000002,1.01,-0.062,192.0,0.0,0.0,0.0,0.0,0.0,0.0,0.0,0.0,0.0,1769807843.6584625,0.0,-44.0
15.0,-37951.920980444076,-6516.628744200319,-48206.700170838856,-62662.35562114187,-61699.822449662985,-21041.418140103597,-37076.11257745178,-51401.055026180155,0.018000000000000002,1.008,-0.058,192.0,0.0,144.0,31.0,128.0,254.0,48.0,0.0,0.0,0.0,1769807843.6584685,0.0,-44.0
16.0,-37971.076425442276,-6534.95717465367,-48556.169695397584,-62709.42839496474,-61704.02457762058,-20528.535011832122,-37383.471415456705,-51521.19565262743,0.018000000000000002,1.008,-0.058,192.0,0.0,0.0,0.0,0.0,0.0,0.0,0.0,0.0,0.0,1769807843.6584742,0.0,-44.0
17.0,-37629.698232376366,-6183.475993093967,-48675.05862415536,-62392.748879521954,-61354.08566642829,-21280.73826798657,-37445.60926504246,-51294.32544640607,0.018000000000000002,1.008,-0.058,192.0,0.0,0.0,0.0,0.0,0.0,0.0,0.0,0.0,0.0,1769807843.6584797,0.0,-44.0
18.0,-37563.31355134411,-6115.97372483894,-48293.15671839198,-62288.746212571416,-61294.78648838836,-21964.478130874413,-37107.82970283386,-51125.30155483503,0.018000000000000002,1.008,-0.058,192.0,0.0,0.0,0.0,0.0,0.0,0.0,0.0,0.0,0.0,1769807843.6584857,0.0,-44.0
19.0,-37890.319572725246,-6440.521054329998,-48165.97529244129,-62595.03216684249,-61640.031533245034,-21230.670360406682,-37038.2934258334,-51344.92979585288,0.018000000000000002,1.008,-0.058,192.0,0.0,0.0,0.0,0.0,0.0,0.0,0.0,0.0,0.0,1769807843.6584916,0.0,-44.0
20.0,-37974.02685571037,-6543.942575924704,-48493.42834871154,-62718.1008718134,-61730.73491224467,-20544.225936439747,-37337.270359667586,-51524.034324173255,0.018000000000000002,1.008,-0.058,192.0,0.0,0.0,0.0,0.0,0.0,0.0,0.0,0.0,0.0,1769807843.6584969,0.0,-44.0
21.0,-37707.88463448103,-6278.739127962485,-48705.88167975923,-62467.40370600268,-61435.490719734524,-21095.576416918804,-37481.68498059332,-51365.53810424067,0.018000000000000002,1.008,-0.058,192.0,0.0,0.0,0.0,0.0,0.0,0.0,0.0,0.0,0.0,1769807843.658503,0.0,-44.0
22.0,-37526.47787648176,-6085.39653842408,-48366.85041986113,-62261.052401191286,-61252.944022768024,-21956.699723803966,-37164.33491281688,-51121.010019899615,0.018000000000000002,1.008,-0.058,192.0,0.0,0.0,0.0,0.0,0.0,0.0,0.0,0.0,0.0,1769807843.6585083,0.0,-44.0
23.0,-37840.475182589915,-6420.672705253685,-48144.78583869766,-62548.3617244198,-61578.83245692641,-21407.405603814794,-37003.42470448312,-51300.1592517089,0.018000000000000002,1.008,-0.058,192.0,0.0,0.0,0.0,0.0,0.0,0.0,0.0,0.0,0.0,1769807843.6585145,0.0,-44.0
24.0,-38054.15785958265,-6650.694507443251,-48477.96094154847,-62793.80623028353,-61801.254666001165,-20556.318230190067,-37332.9117694988,-51580.85245857864,0.018000000000000002,1.008,-0.058,192.0,0.0,0.0,0.0,0.0,0.0,0.0,0.0,0.0,0.0,1769807843.65852,0.0,-44.0
25.0,-37785.042856340755,-6376.975044843561,-48715.67174383065,-62555.76015183451,-61516.56049687392,-20899.573969790217,-37508.08239079504,-51446.38436393552,0.014,1.004,-0.058,192.0,0.0,112.0,31.0,96.0,254.0,48.0,0.0,0.0,0.0,1769807843.6585252,0.0,-44.0
26.0,-37516.03961182113,-6100.528669420322,-48445.26033941035,-62267.73557278342,-61234.83910975923,-21902.96613013341,-37237.849800330376,-51143.78644749957,0.014,1.004,-0.058,192.0,0.0,0.0,0.0,0.0,0.0,0.0,0.0,0.0,0.0,1769807843.6585314,0.0,-44.0
27.0,-37788.37326626459,-6360.278291735446,-48143.53414100816,-62492.169438859164,-61506.27869442448,-21604.1009550215,-36993.43347471159,-51247.78911445011,0.014,1.004,-0.058,192.0,0.0,0.0,0.0,0.0,0.0,0.0,0.0,0.0,0.0,1769807843.658537,0.0,-44.0
28.0,-38058.47174626252,-6603.509974898097,-48388.44220500496,-62772.68383177326,-61779.305252946055,-20677.129408971003,-37249.15978302476,-51535.90310047902,0.014,1.004,-0.058,192.0,0.0,0.0,0.0,0.0,0.0,0.0,0.0,0.0,0.0,1769807843.658542,0.0,-44.0
29.0,-37865.53148812431,-6411.93317317166,-48688.15674640617,-62616.62395198631,-61580.24061682709,-20789.78220102575,-37494.26901272166,-51477.07330907266,0.014,1.004,-0.058,192.0,0.0,0.0,0.0,0.0,0.0,0.0,0.0,0.0,0.0,1769807843.6585472,0.0,-44.0
30.0,-37516.08431531004,-6093.5325734058115,-48518.73052343494,-62272.94352924151,-61236.49313884892,-21826.143184440516,-37303.988612173634,-51158.18097092879,0.014,1.004,-0.058,192.0,0.0,0.0,0.0,0.0,0.0,0.0,0.0,0.0,0.0,1769807843.6585536,0.0,-44.0
31.0,-37678.80501494468,-6247.781961891886,-48131.128922835465,-62392.10067893275,-61408.33335022132,-21784.770105453743,-36972.71340760153,-51162.15958144183,0.014,1.004,-0.058,192.0,0.0,0.0,0.0,0.0,0.0,0.0,0.0,0.0,0.0,1769807843.658559,0.0,-44.0
32.0,-38021.34549872226,-6595.217477705179,-48307.41713135447,-62731.78013942005,-61759.21103468073,-20813.184477470455,-37171.30865708693,-51475.866314872066,0.014,1.004,-0.058,192.0,0.0,0.0,0.0,0.0,0.0,0.0,0.0,0.0,0.0,1769807843.6585636,0.0,-44.0
33.0,-37918.5498259723,-6495.729863134607,-48669.89537118618,-62669.28466192301,-61658.76229509858,-20684.349022430066,-37478.823957303044,-51513.48430079035,0.014,1.004,-0.058,192.0,0.0,0.0,0.0,0.0,0.0,0.0,0.0,0.0,0.0,1769807843.658568,0.0,-44.0
34.0,-37541.09591735553,-6130.323544779247,-48606.48347216648,-62307.83460233625,-61269.61842413169,-21680.7674385032,-37376.85529909794,-51208.04771280858,0.014,1.004,-0.058,192.0,0.0,0.0,0.0,0.0,0.0,0.0,0.0,0.0,0.0,1769807843.6585724,0.0,-44.0
35.0,-37614.29788044666,-6195.344769399735,-48165.28238836317,-62326.18538453405,-61332.918564429114,-21920.512249530824,-36981.765864105924,-51120.47357803269,0.018000000000000002,1.006,-0.058,192.0,0.0,144.0,31.0,112.0,254.0,48.0,0.0,0.0,0.0,1769807843.658577,0.0,-44.0
36.0,-37994.277536186884,-6559.968776699159,-48233.87989209651,-62684.46149640817,-61713.21114459171,-20984.242377786923,-37087.22139444607,-51418.467035110836,0.018000000000000002,1.006,-0.058,192.0,0.0,0.0,0.0,0.0,0.0,0.0,0.0,0.0,0.0,1769807843.6585815,0.0,-44.0
37.0,-37989.22604193998,-6560.549922054997,-48643.74383017347,-62723.577049204956,-61722.48711854067,-20632.04594040465,-37457.142765181394,-51545.31318489471,0.018000000000000002,1.006,-0.058,192.0,0.0,0.0,0.0,0.0,0.0,0.0,0.0,0.0,0.0,1769807843.6585858,0.0,-44.0
38.0,-37602.38440065198,-6176.703414524009,-48677.807888723364,-62359.824759939285,-61337.478320297996,-21515.565695234025,-37445.29634062009,-51271.928998461844,0.018000000000000002,1.006,-0.058,192.0,0.0,0.0,0.0,0.0,0.0,0.0,0.0,0.0,0.0,1769807843.65859,0.0,-44.0
39.0,-37582.089016686565,-6141.275899562347,-48229.342487972084,-62289.506171882895,-61308.219886806,-22013.160230298072,-37045.08835614781,-51104.60383946942,0.018000000000000002,1.006,-0.058,192.0,0.0,0.0,0.0,0.0,0.0,0.0,0.0,0.0,0.0,1769807843.6585944,0.0,-44.0
40.0,-37945.86365769669,-6497.339188735389,-48198.69824632386,-62639.98152494211,-61682.25397852111,-21162.966926451558,-37060.46635633306,-51378.5244677692,0.018000000000000002,1.006,-0.058,192.0,0.0,0.0,0.0,0.0,0.0,0.0,0.0,0.0,0.0,1769807843.658599,0.0,-44.0
41.0,-37992.06471348581,-6565.467305835165,-48567.926712981076,-62721.99007534863,-61735.16055764682,-20609.805954671618,-37394.513177217625,-51533.37735335557,0.018000000000000002,1.006,-0.058,192.0,0.0,0.0,0.0,0.0,0.0,0.0,0.0,0.0,0.0,1769807843.6586032,0.0,-44.0
42.0,-37662.22002055884,-6246.6196711802095,-48714.12947346324,-62425.11420549324,-61398.163306494156,-21320.65848358375,-37480.45563464828,-51324.63441188746,0.018000000000000002,1.006,-0.058,192.0,0.0,0.0,0.0,0.0,0.0,0.0,0.0,0.0,0.0,1769807843.6586075,0.0,-44.0
43.0,-37539.777164432664,-6094.851326328675,-48304.84668074211,-62270.30602339578,-61272.59120614424,-22046.665495236575,-37108.6120138898,-51105.63201971436,0.018000000000000002,1.006,-0.058,192.0,0.0,0.0,0.0,0.0,0.0,0.0,0.0,0.0,0.0,1769807843.658612,0.0,-44.0
44.0,-37868.705435836964,-6410.323847570879,-48146.26105383171,-62570.91463457521,-61607.68855901821,-21345.670085629237,-37012.387754009695,-51314.39731292693,0.018000000000000002,1.006,-0.058,192.0,0.0,0.0,0.0,0.0,0.0,0.0,0.0,0.0,0.0,1769807843.6586163,0.0,-44.0
45.0,-38029.86151335973,-6589.763652058084,-48503.41957848306,-62751.047343140526,-61753.93602298928,-20620.020701887694,-37339.840810279944,-51541.82631275968,0.024,1.01,-0.056,192.0,0.0,192.0,31.0,144.0,254.0,64.0,0.0,0.0,0.0,1769807843.6586208,0.0,-44.0
46.0,-37738.73004182935,-6319.776930782429,-48723.316040434365,-62504.28408435394,-61452.746266454014,-21138.871745928736,-37503.23206224824,-51388.94038068538,0.024,1.01,-0.056,192.0,0.0,0.0,0.0,0.0,0.0,0.0,0.0,0.0,0.0,1769807843.658625,0.0,-44.0
47.0,-37516.88897811043,-6094.314884461747,-48368.54915243974,-62257.7443430119,-61224.75847300988,-22045.36909405817,-37166.123052373296,-51101.273429545574,0.024,1.01,-0.056,192.0,0.0,0.0,0.0,0.0,0.0,0.0,0.0,0.0,0.0,1769807843.6586292,0.0,-44.0
48.0,-37817.877568945594,-6392.3083415399005,-48120.7577134082,-62516.778709504455,-61532.69845637065,-21540.756111235158,-36973.96510529103,-51247.409134794376,0.024,1.01,-0.056,192.0,0.0,0.0,0.0,0.0,0.0,0.0,0.0,0.0,0.0,1769807843.6586337,0.0,-44.0
49.0,-38050.64863570317,-6627.940431587748,-48438.46540909594,-62769.55458754952,-61773.47144764322,-20672.457894379844,-37286.82247243196,-51523.14025439504,0.024,1.01,-0.056,192.0,0.0,0.0,0.0,0.0,0.0,0.0,0.0,0.0,0.0,1769807843.658638,0.0,-44.0
50.0,-37807.43930428497,-6384.97696935856,-48709.21208968307,-62557.10125650183,-61521.43317716518,-20968.976136323945,-37496.12420751145,-51424.12202645803,0.024,1.01,-0.056,192.0,0.0,0.0,0.0,0.0,0.0,0.0,0.0,0.0,0.0,1769807843.6586423,0.0,-44.0
51.0,-37490.73743709773,-6072.946616762473,-48431.26814738133,-62231.190470598995,-61208.48640304642,-21984.25942471736,-37216.19095995319,-51098.993551611136,0.024,1.01,-0.056,192.0,0.0,0.0,0.0,0.0,0.0,0.0,0.0,0.0,0.0,1769807843.6586466,0.0,-44.0
52.0,-37752.63282688056,-6332.048038488393,-48126.27859428866,-62455.42317097464,-61475.25447312051,-21717.223133709806,-36971.39465467866,-51200.89515458288,0.024,1.01,-0.056,192.0,0.0,0.0,0.0,0.0,0.0,0.0,0.0,0.0,0.0,1769807843.658651,0.0,-44.0
53.0,-38042.04321408787,-6594.457518393698,-48372.90774260852,-62754.17658736427,-61771.70565983125,-20770.000907182803,-37230.026689771024,-51507.449329787414,0.024,1.01,-0.056,192.0,0.0,0.0,0.0,0.0,0.0,0.0,0.0,0.0,0.0,1769807843.6586552,0.0,-44.0
54.0,-37883.21171798846,-6446.153693932735,-48704.47351985855,-62632.85131846087,-61609.23082938562,-20826.617875888096,-37495.967745300266,-51481.09662307461,0.024,1.01,-0.056,192.0,0.0,0.0,0.0,0.0,0.0,0.0,0.0,0.0,0.0,1769807843.6586597,0.0,-44.0
55.0,-37529.07067883857,-6109.44701545799,-48553.97922444096,-62278.33029965524,-61243.69040056353,-21852.875870809065,-37323.077001938465,-51168.57453210051,0.024,1.01,-0.056,192.0,0.0,0.0,0.0,0.0,0.0,0.0,0.0,0.0,0.0,1769807843.658664,0.0,-44.0
56.0,-37687.32102958215,-6263.651700455153,-48152.89952193493,-62391.6759957881,-61412.356664223276,-21855.021638276772,-36976.26733496992,-51161.86900876391,0.024,1.006,-0.058,192.0,0.0,192.0,31.0,112.0,254.0,48.0,0.0,0.0,0.0,1769807843.6586685,0.0,-44.0
57.0,-38040.50094372046,-6612.40596919131,-48327.71251531989,-62753.61779375289,-61781.205151224756,-20872.818931677215,-37179.80231997995,-51493.63595171404,0.024,1.006,-0.058,192.0,0.0,0.0,0.0,0.0,0.0,0.0,0.0,0.0,0.0,1769807843.6586723,0.0,-44.0
58.0,-37928.697517955006,-6523.893061148294,-48680.490098058,-62686.719022598154,-61667.68064113625,-20709.271217497735,-37479.27099219215,-51521.508577049804,0.024,1.006,-0.058,192.0,0.0,0.0,0.0,0.0,0.0,0.0,0.0,0.0,0.0,1769807843.658677,0.0,-44.0
59.0,-37554.28344658416,-6149.210768843981,-48632.72442015701,-62322.29618099883,-61278.961453314005,-21693.351470631536,-37384.83487186848,-51215.84847162348,0.024,1.006,-0.058,192.0,0.0,0.0,0.0,0.0,0.0,0.0,0.0,0.0,0.0,1769807843.6586816,0.0,-44.0
60.0,-37625.96549105233,-6207.794691061341,-48206.58841211658,-62348.33596328926,-61348.96711694803,-21969.55197686577,-37014.26530054394,-51133.50464505013,0.024,1.006,-0.058,192.0,0.0,0.0,0.0,0.0,0.0,0.0,0.0,0.0,0.0,1769807843.6586857,0.0,-44.0
61.0,-37991.23769894096,-6574.296244895011,-48253.99646210628,-62703.46047919518,-61724.923458686295,-21034.042064433346,-37105.28160396595,-51428.525320115725,0.024,1.006,-0.058,192.0,0.0,0.0,0.0,0.0,0.0,0.0,0.0,0.0,0.0,1769807843.6586902,0.0,-44.0
62.0,-38009.34261194976,-6582.946369999215,-48658.093650113784,-62747.04638088303,-61735.40642683583,-20639.51142305272,-37471.17966069933,-51560.668833335505,0.024,1.006,-0.058,192.0,0.0,0.0,0.0,0.0,0.0,0.0,0.0,0.0,0.0,1769807843.6586945,0.0,-44.0
63.0,-37609.11227573303,-6194.160126943604,-48683.35112134828,-62370.84416995575,-61323.39672129115,-21507.295549785562,-37443.731718508214,-51263.36828033546,0.024,1.006,-0.058,192.0,0.0,0.0,0.0,0.0,0.0,0.0,0.0,0.0,0.0,1769807843.6586988,0.0,-44.0
64.0,-37584.257135898726,-6138.9066146500845,-48255.60578770707,-62310.71797737098,-61300.50853496892,-22042.597477745712,-37056.75596675348,-51108.135415093355,0.024,1.006,-0.058,192.0,0.0,0.0,0.0,0.0,0.0,0.0,0.0,0.0,0.0,1769807843.658703,0.0,-44.0
65.0,-37946.98124491945,-6520.450892502176,-48209.53884238468,-62656.23124316111,-61677.87303660787,-21202.99890077101,-37061.38277785573,-51380.156145114444,0.024,1.006,-0.058,192.0,0.0,0.0,0.0,0.0,0.0,0.0,0.0,0.0,0.0,1769807843.6587076,0.0,-44.0
66.0,-38008.00150728244,-6611.713065113195,-48577.15798344112,-62748.83452043945,-61747.565775819516,-20620.154812354423,-37402.44804649926,-51547.07897270667,0.026000000000000002,1.006,-0.052000000000000005,192.0,0.0,208.0,31.0,112.0,254.0,96.0,0.0,0.0,0.0,1769807843.658712,0.0,-44.0
67.0,-37668.143232839495,-6273.777040693408,-48714.800025796896,-62439.26285973345,-61392.86594305825,-21307.761527033035,-37480.65680034838,-51327.24956598873,0.026000000000000002,1.006,-0.052000000000000005,192.0,0.0,0.0,0.0,0.0,0.0,0.0,0.0,0.0,0.0,1769807843.6587164,0.0,-44.0
68.0,-37536.24558880873,-6124.847367387697,-48316.26842215877,-62271.49066585192,-61254.62040360217,-22070.760675759397,-37113.59645290333,-51098.34535102193,0.026000000000000002,1.006,-0.052000000000000005,192.0,0.0,0.0,0.0,0.0,0.0,0.0,0.0,0.0,0.0,1769807843.6587207,0.0,-44.0
69.0,-37861.932857267006,-6429.5239960579875,-48132.157103080404,-62551.53567213246,-61575.74791619157,-21406.913865436778,-36985.632715896696,-51283.64131255643,0.026000000000000002,1.006,-0.052000000000000005,192.0,0.0,0.0,0.0,0.0,0.0,0.0,0.0,0.0,0.0,1769807843.6587248,0.0,-44.0
70.0,-38040.344481509266,-6616.004600048614,-48498.61395342516,-62759.40689556681,-61761.91559575983,-20651.536661569677,-37337.18095268976,-51536.77481851278,0.026000000000000002,1.006,-0.052000000000000005,192.0,0.0,0.0,0.0,0.0,0.0,0.0,0.0,0.0,0.0,1769807843.6587293,0.0,-44.0
71.0,-37756.4102716935,-6346.040230517416,-48732.971994039064,-62518.76801476098,-61475.50034230952,-21126.779452178413,-37510.27286175166,-51396.629380778,0.026000000000000002,1.006,-0.052000000000000005,192.0,0.0,0.0,0.0,0.0,0.0,0.0,0.0,0.0,0.0,1769807843.6587334,0.0,-44.0
72.0,-37514.407934475894,-6106.720102634443,-48388.26339104932,-62255.50916856637,-61223.93145846504,-22058.064884908785,-37179.690561257674,-51102.92745863527,0.026000000000000002,1.006,-0.052000000000000005,192.0,0.0,0.0,0.0,0.0,0.0,0.0,0.0,0.0,0.0,1769807843.658738,0.0,-44.0
73.0,-37836.16129591004,-6416.090597640347,-48155.29115859165,-62537.36466614779,-61550.982183335094,-21582.151541966385,-37002.262413771445,-51269.33619610503,0.026000000000000002,1.006,-0.052000000000000005,192.0,0.0,0.0,0.0,0.0,0.0,0.0,0.0,0.0,0.0,1769807843.6587424,0.0,-44.0
74.0,-38057.86824916223,-6638.848082881937,-48450.44594412398,-62778.62939579838,-61779.03703201259,-20700.218760993335,-37299.74178072713,-51540.664022048004,0.026000000000000002,1.006,-0.052000000000000005,192.0,0.0,0.0,0.0,0.0,0.0,0.0,0.0,0.0,0.0,1769807843.6587467,0.0,-44.0
75.0,-37815.35182182215,-6396.175193330669,-48722.44432240061,-62572.970995065094,-61530.03859878047,-20962.29296473181,-37504.483759937735,-51437.26485219775,0.026000000000000002,1.006,-0.052000000000000005,192.0,0.0,0.0,0.0,0.0,0.0,0.0,0.0,0.0,0.0,1769807843.6587512,0.0,-44.0
76.0,-37519.28061476715,-6100.908649076063,-48495.95409583498,-62268.696697795,-61232.53688008033,-21984.52764565082,-37263.75547215408,-51139.7184300087,0.026000000000000002,1.008,-0.058,192.0,0.0,208.0,31.0,128.0,254.0,48.0,0.0,0.0,0.0,1769807843.6587555,0.0,-44.0
77.0,-37733.67854758246,-6315.418340613644,-48136.80626592711,-62436.33478120981,-61442.129187837745,-21772.923680892432,-36964.55502087534,-51186.433575920295,0.026000000000000002,1.008,-0.058,192.0,0.0,0.0,0.0,0.0,0.0,0.0,0.0,0.0,0.0,1769807843.6587598,0.0,-44.0
78.0,-38062.919743409126,-6651.3427080324545,-48385.00003635884,-62771.78976199505,-61779.148790734864,-20809.116459979592,-37229.46789615964,-51513.819576957176,0.026000000000000002,1.008,-0.058,192.0,0.0,0.0,0.0,0.0,0.0,0.0,0.0,0.0,0.0,1769807843.658764,0.0,-44.0
79.0,-37904.60233743219,-6490.410147954243,-48713.749493807496,-62642.21669938764,-61612.38242535382,-20832.518736424296,-37508.28355649514,-51495.44644301492,0.026000000000000002,1.008,-0.058,192.0,0.0,0.0,0.0,0.0,0.0,0.0,0.0,0.0,0.0,1769807843.6587684,0.0,-44.0
80.0,-37541.98998713374,-6113.44797771549,-48559.8130297438,-62278.21854093296,-61232.55923182479,-21863.67176338098,-37327.0109089626,-51165.48999136568,0.026000000000000002,1.008,-0.058,192.0,0.0,0.0,0.0,0.0,0.0,0.0,0.0,0.0,0.0,1769807843.6587727,0.0,-44.0
81.0,-37688.30450633818,-6266.155095834148,-48173.1725541559,-62386.55744630784,-61393.02240526944,-21909.224618580894,-36993.56758517833,-51161.3772703859,0.026000000000000002,1.008,-0.058,192.0,0.0,0.0,0.0,0.0,0.0,0.0,0.0,0.0,0.0,1769807843.658777,0.0,-44.0
82.0,-38020.51848417741,-6603.845251064927,-48295.77187249326,-62723.06295908248,-61741.68726702777,-20941.483490643917,-37155.148345845744,-51460.01892805326,0.026000000000000002,1.008,-0.058,192.0,0.0,0.0,0.0,0.0,0.0,0.0,0.0,0.0,0.0,1769807843.6587813,0.0,-44.0
83.0,-37955.29609385683,-6554.671413263251,-48666.699071729076,-62696.19616224721,-61672.06158304949,-20733.791081165207,-37482.690809093816,-51529.979888198366,0.026000000000000002,1.008,-0.058,192.0,0.0,0.0,0.0,0.0,0.0,0.0,0.0,0.0,0.0,1769807843.6587856,0.0,-44.0
84.0,-37559.13377513096,-6153.569359012766,-48631.897405612166,-62316.73059662946,-61271.67478462157,-21701.465153868816,-37401.19634880976,-51214.79793963408,0.026000000000000002,1.008,-0.058,192.0,0.0,0.0,0.0,0.0,0.0,0.0,0.0,0.0,0.0,1769807843.65879,0.0,-44.0
85.0,-37605.714810575824,-6180.9949494594275,-48194.54082185517,-62324.33018974426,-61327.688256226575,-22027.778271171843,-37017.37219302323,-51109.78944418305,0.026000000000000002,1.008,-0.058,192.0,0.0,0.0,0.0,0.0,0.0,0.0,0.0,0.0,0.0,1769807843.6587944,0.0,-44.0
86.0,-37962.91803871609,-6545.350735825388,-48221.988764046284,-62666.960080499666,-61697.654330450816,-21109.74742290347,-37094.68687709414,-51398.7304447568,0.03,1.01,-0.056,192.0,0.0,240.0,31.0,144.0,254.0,64.0,0.0,0.0,0.0,1769807843.6587987,0.0,-44.0
87.0,-38003.508806646925,-6590.92594276976,-48618.888690339176,-62719.68784566973,-61716.45214753773,-20684.2819671967,-37447.12918366542,-51535.38901035655,0.03,1.01,-0.056,192.0,0.0,0.0,0.0,0.0,0.0,0.0,0.0,0.0,0.0,1769807843.658803,0.0,-44.0
88.0,-37610.54278737817,-6203.32434217028,-48662.63105423821,-62345.29612604334,-61307.1693548166,-21522.047701126063,-37432.04175615808,-51249.085515628525,0.03,1.01,-0.056,192.0,0.0,0.0,0.0,0.0,0.0,0.0,0.0,0.0,0.0,1769807843.6588073,0.0,-44.0
89.0,-37567.761548490715,-6153.301138079302,-48242.37355498953,-62273.39056413062,-61276.234540490455,-22093.313585914802,-37052.039748673415,-51081.358025235895,0.03,1.01,-0.056,192.0,0.0,0.0,0.0,0.0,0.0,0.0,0.0,0.0,0.0,1769807843.6588116,0.0,-44.0
90.0,-37928.31753829927,-6509.073854574425,-48173.127850666984,-62611.080719361395,-61641.59615535691,-21282.92873894319,-37037.08643163281,-51339.07363880559,0.03,1.01,-0.056,192.0,0.0,0.0,0.0,0.0,0.0,0.0,0.0,0.0,0.0,1769807843.6588159,0.0,-44.0
91.0,-38015.77991435288,-6603.174698731268,-48546.84901795972,-62737.412779022794,-61733.19360413476,-20669.082780967092,-37374.88834558587,-51527.185920141455,0.03,1.01,-0.056,192.0,0.0,0.0,0.0,0.0,0.0,0.0,0.0,0.0,0.0,1769807843.6588204,0.0,-44.0
92.0,-37675.25108757628,-6286.562238521843,-48715.53763336392,-62444.0908365358,-61390.3401959348,-21324.659445841247,-37485.37301842845,-51333.329240480576,0.03,1.01,-0.056,192.0,0.0,0.0,0.0,0.0,0.0,0.0,0.0,0.0,0.0,1769807843.6588247,0.0,-44.0
93.0,-37511.211635018786,-6112.6656666595545,-48311.59690756761,-62247.99898242939,-61221.15984215258,-22123.175516507094,-37112.858845336305,-51082.475612458664,0.03,1.01,-0.056,192.0,0.0,0.0,0.0,0.0,0.0,0.0,0.0,0.0,0.0,1769807843.658829,0.0,-44.0
94.0,-37857.797784542774,-6443.762057276018,-48146.4622195318,-62552.7650180775,-61572.26104405655,-21480.67462213929,-37001.81537888234,-51287.105832946996,0.03,1.01,-0.056,192.0,0.0,0.0,0.0,0.0,0.0,0.0,0.0,0.0,0.0,1769807843.6588333,0.0,-44.0
95.0,-38038.019900085914,-6614.104701769913,-48489.472089942945,-62747.3593053054,-61750.0244677096,-20700.822258093627,-37326.1615426733,-51524.99544918483,0.03,1.01,-0.056,192.0,0.0,0.0,0.0,0.0,0.0,0.0,0.0,0.0,0.0,1769807843.6588376,0.0,-44.0
96.0,-37764.09927178613,-6348.007184029482,-48736.21299698508,-62512.867154224776,-61474.09218240884,-21137.173013350133,-37510.56343442958,-51393.567191787624,0.03,1.008,-0.052000000000000005,192.0,0.0,240.0,31.0,128.0,254.0,96.0,0.0,0.0,0.0,1769807843.658842,0.0,-44.0
97.0,-37512.731553641745,-6099.500489175379,-48412.850309950154,-62245.249717861385,-61222.188022397524,-22081.265995653393,-37197.795474266466,-51098.85944114441,0.03,1.008,-0.052000000000000005,192.0,0.0,0.0,0.0,0.0,0.0,0.0,0.0,0.0,0.0,1769807843.6588461,0.0,-44.0
98.0,-37811.5743770092,-6395.638751463742,-48150.843161445046,-62496.505677283494,-61517.25340095203,-21650.52552825517,-36987.51026243094,-51240.1448178464,0.03,1.008,-0.052000000000000005,192.0,0.0,0.0,0.0,0.0,0.0,0.0,0.0,0.0,0.0,1769807843.6588507,0.0,-44.0
99.0,-38055.27544680541,-6637.484626470164,-48426.44017057898,-62747.42636053877,-61759.725124803204,-20754.399389553,-37264.984818099125,-51508.90219317701,0.03,1.008,-0.052000000000000005,192.0,0.0,0.0,0.0,0.0,0.0,0.0,0.0,0.0,0.0,1769807843.658855,0.0,-44.0
100.0,-37850.10878445015,-6443.762057276018,-48731.988517283025,-62588.41605048371,-61556.771285149014,-20966.450389200498,-37507.210672761285,-51444.46211391236,0.03,1.008,-0.052000000000000005,192.0,0.0,0.0,0.0,0.0,0.0,0.0,0.0,0.0,0.0,1769807843.6588593,0.0,-44.0
101.0,-37535.28446379715,-6118.834748129219,-48511.6003169537,-62269.61311931767,-61232.626287058156,-21992.082535276717,-37280.87690840685,-51133.19172062776,0.03,1.008,-0.052000000000000005,192.0,0.0,0.0,0.0,0.0,0.0,0.0,0.0,0.0,0.0,1769807843.6588635,0.0,-44.0
102.0,-37755.42679493747,-6348.945957296605,-48173.127850666984,-62455.825502374835,-61467.6101765168,-21818.767108770266,-37005.92809986211,-51205.521965685126,0.03,1.008,-0.052000000000000005,192.0,0.0,0.0,0.0,0.0,0.0,0.0,0.0,0.0,0.0,1769807843.658868,0.0,-44.0
103.0,-38053.554362482355,-6648.2358155531665,-48370.918437352,-62754.690677486746,-61771.59390110897,-20856.88213788058,-37223.857608301354,-51498.3521697941,0.03,1.008,-0.052000000000000005,192.0,0.0,0.0,0.0,0.0,0.0,0.0,0.0,0.0,0.0,1769807843.6588724,0.0,-44.0
104.0,-37911.710192168975,-6483.726976362107,-48700.56196457887,-62640.74148425359,-61616.11516667785,-20835.31270448121,-37499.99105930222,-51485.7010824324,0.03,1.008,-0.052000000000000005,192.0,0.0,0.0,0.0,0.0,0.0,0.0,0.0,0.0,0.0,1769807843.658877,0.0,-44.0
105.0,-37518.23008277775,-6101.310980476258,-48550.93938719504,-62257.02908718933,-61213.69435950451,-21868.00800180531,-37325.513342084094,-51140.74661025365,0.03,1.008,-0.052000000000000005,192.0,0.0,0.0,0.0,0.0,0.0,0.0,0.0,0.0,0.0,1769807844.1380713,0.0,-44.0
106.0,-37658.17435481243,-6253.794581150363,-48156.65461500343,-62361.09880937324,-61367.474361357024,-21961.90768026205,-36987.80083510886,-51128.631964758875,0.026000000000000002,1.006,-0.052000000000000005,192.0,0.0,208.0,31.0,112.0,254.0,96.0,0.0,0.0,0.0,1769807844.1381145,0.0,-44.0
107.0,-37999.57489962279,-6603.599381875919,-48271.07319487014,-62702.72287162815,-61719.603743505926,-20992.467819746475,-37138.943331115646,-51436.41548590845,0.026000000000000002,1.006,-0.052000000000000005,192.0,0.0,0.0,0.0,0.0,0.0,0.0,0.0,0.0,0.0,1769807844.1381328,0.0,-44.0
108.0,-37941.214494849984,-6532.766703697051,-48638.35705975975,-62673.48678988061,-61650.08981824992,-20751.225441840346,-37456.98630297021,-51502.59900124062,0.026000000000000002,1.006,-0.052000000000000005,192.0,0.0,0.0,0.0,0.0,0.0,0.0,0.0,0.0,0.0,1769807844.1381495,0.0,-44.0
109.0,-37586.000571966244,-6161.437173061035,-48642.49213248398,-62332.510928214906,-61282.247159748935,-21695.7207555438,-37418.96598565173,-51237.28379455612,0.026000000000000002,1.006,-0.052000000000000005,192.0,0.0,0.0,0.0,0.0,0.0,0.0,0.0,0.0,0.0,1769807844.1381652,0.0,-44.0
110.0,-37614.58845312458,-6192.059062964805,-48203.481519637295,-62320.10571004221,-61314.5230787424,-22064.88216696765,-37033.55485600887,-51121.94879316674,0.026000000000000002,1.006,-0.052000000000000005,192.0,0.0,0.0,0.0,0.0,0.0,0.0,0.0,0.0,0.0,1769807844.1381743,0.0,-44.0
111.0,-38016.00343179744,-6604.895783054327,-48248.47558122582,-62703.929865828744,-61723.381188318876,-21151.835757712815,-37119.430258206165,-51435.83434055261,0.026000000000000002,1.006,-0.052000000000000005,192.0,0.0,0.0,0.0,0.0,0.0,0.0,0.0,0.0,0.0,1769807844.1381829,0.0,-44.0
112.0,-38045.06069958934,-6629.102722299424,-48645.71078368554,-62760.72564848968,-61750.11387468742,-20689.266406210234,-37477.7957770581,-51586.08276678119,0.026000000000000002,1.006,-0.052000000000000005,192.0,0.0,0.0,0.0,0.0,0.0,0.0,0.0,0.0,0.0,1769807844.1381917,0.0,-44.0
113.0,-37668.32204679514,-6265.685709200587,-48728.009906769985,-62417.06757748933,-61373.01759398194,-21486.843703608956,-37505.824864605056,-51325.46142643231,0.026000000000000002,1.006,-0.052000000000000005,192.0,0.0,0.0,0.0,0.0,0.0,0.0,0.0,0.0,0.0,1769807844.1382,0.0,-44.0
114.0,-37563.20179262183,-6156.720954980964,-48272.30254081518,-62279.67140432256,-61276.234540490455,-22105.964673276507,-37092.652868348705,-51103.77682492457,0.026000000000000002,1.006,-0.052000000000000005,192.0,0.0,0.0,0.0,0.0,0.0,0.0,0.0,0.0,0.0,1769807844.1382089,0.0,-44.0
115.0,-37926.819971420766,-6510.90669761976,-48186.04715896215,-62615.349902552356,-61646.02180075906,-21320.189096950187,-37050.005739927976,-51346.9191011094,0.026000000000000002,1.006,-0.052000000000000005,192.0,0.0,0.0,0.0,0.0,0.0,0.0,0.0,0.0,0.0,1769807844.1382172,0.0,-44.0
116.0,-38034.66713841762,-6604.582858631952,-48551.94521569553,-62745.19118609324,-61738.468615826205,-20674.782475803197,-37384.49959570165,-51536.03721094575,0.024,1.006,-0.052000000000000005,192.0,0.0,192.0,31.0,112.0,254.0,96.0,0.0,0.0,0.0,1769807844.1382256,0.0,-44.0
117.0,-37741.8592860531,-6306.7235120205305,-48744.23727324454,-62479.31718579736,-61433.0990830778,-21284.582768032884,-37516.866626365976,-51366.2757118077,0.024,1.006,-0.052000000000000005,192.0,0.0,0.0,0.0,0.0,0.0,0.0,0.0,0.0,0.0,1769807844.138234,0.0,-44.0
118.0,-37579.13858641846,-6166.153391141104,-48385.178850314485,-62294.17768647405,-61281.01781380389,-22093.157123703615,-37177.32127634541,-51132.72233399419,0.024,1.006,-0.052000000000000005,192.0,0.0,0.0,0.0,0.0,0.0,0.0,0.0,0.0,0.0,1769807844.1382425,0.0,-44.0
119.0,-37900.668430408055,-6481.6482641277635,-48195.658409077936,-62585.59973068235,-61615.154041666276,-21481.836912850966,-37047.61410327126,-51322.0639612751,0.024,1.006,-0.052000000000000005,192.0,0.0,0.0,0.0,0.0,0.0,0.0,0.0,0.0,0.0,1769807844.1382508,0.0,-44.0
120.0,-38083.14807214118,-6665.4913622726635,-48520.63042171364,-62794.96852099521,-61796.292578732086,-20677.84466479357,-37363.265438469105,-51562.99341475886,0.024,1.006,-0.052000000000000005,192.0,0.0,0.0,0.0,0.0,0.0,0.0,0.0,0.0,0.0,1769807844.1382592,0.0,-44.0
121.0,-37784.752283662834,-6387.212143804091,-48749.28876749144,-62540.15863420471,-61495.92983674167,-21084.02056503541,-37522.85689388,-51412.96850597483,0.024,1.006,-0.052000000000000005,192.0,0.0,0.0,0.0,0.0,0.0,0.0,0.0,0.0,0.0,1769807844.1382675,0.0,-44.0
122.0,-37508.46237045078,-6116.510166705867,-48418.99703967536,-62241.42756955953,-61207.39116756811,-22060.16594888758,-37200.50003534556,-51091.95275210771,0.024,1.006,-0.052000000000000005,192.0,0.0,0.0,0.0,0.0,0.0,0.0,0.0,0.0,0.0,1769807844.138276,0.0,-44.0
123.0,-37796.10696984613,-6392.509507239999,-48137.52152174968,-62484.83806667782,-61501.22720017758,-21677.884063468464,-36978.36839894872,-51213.25566926666,0.024,1.006,-0.052000000000000005,192.0,0.0,0.0,0.0,0.0,0.0,0.0,0.0,0.0,0.0,1769807844.1382847,0.0,-44.0
124.0,-38082.16459538515,-6660.193998836756,-48418.795873975265,-62764.950128191726,-61767.95056676276,-20766.558738536685,-37265.811832643965,-51510.332704822154,0.024,1.006,-0.052000000000000005,192.0,0.0,0.0,0.0,0.0,0.0,0.0,0.0,0.0,0.0,1769807844.138293,0.0,-44.0
125.0,-37875.61212487365,-6462.246949940557,-48715.627040341744,-62598.921370377706,-61555.60899443734,-20947.876089558136,-37505.42253320486,-51443.903320300975,0.024,1.006,-0.052000000000000005,192.0,0.0,0.0,0.0,0.0,0.0,0.0,0.0,0.0,0.0,1769807844.1383011,0.0,-44.0
126.0,-37535.440926008334,-6119.371189996146,-48511.8014826538,-62262.92994772553,-61221.53982180832,-21980.19140722649,-37289.32586781095,-51126.75441822463,0.026000000000000002,1.004,-0.05,192.0,0.0,208.0,31.0,96.0,254.0,112.0,0.0,0.0,0.0,1769807844.1383097,0.0,-44.0
127.0,-37750.12943150156,-6328.874090775739,-48162.354309839524,-62430.76919684043,-61444.00673437199,-21844.784539316242,-36993.65699215615,-51181.60559911795,0.026000000000000002,1.004,-0.05,192.0,0.0,0.0,0.0,0.0,0.0,0.0,0.0,0.0,0.0,1769807844.138318,0.0,-44.0
128.0,-38063.4338335316,-6648.727553931183,-48353.931111565966,-62747.02402913857,-61764.86602602793,-20873.75770494434,-37204.54570109197,-51485.47756498785,0.026000000000000002,1.004,-0.05,192.0,0.0,0.0,0.0,0.0,0.0,0.0,0.0,0.0,0.0,1769807844.138327,0.0,-44.0
129.0,-37949.104660642704,-6531.291488563,-48710.64260132821,-62669.57523460093,-61643.65251584679,-20804.556704110706,-37506.2048442608,-51504.81182394169,0.026000000000000002,1.004,-0.05,192.0,0.0,0.0,0.0,0.0,0.0,0.0,0.0,0.0,0.0,1769807844.1383348,0.0,-44.0
130.0,-37551.17655410487,-6139.331297794735,-48595.79933831684,-62289.26030269388,-61239.06358946128,-21820.376434371046,-37362.639589624356,-51175.90590428185,0.026000000000000002,1.004,-0.05,192.0,0.0,0.0,0.0,0.0,0.0,0.0,0.0,0.0,0.0,1769807844.1383436,0.0,-44.0
131.0,-37642.841058116086,-6216.556574887822,-48150.64199574495,-62337.51771897289,-61331.51040452843,-21972.278889689314,-36973.40631167964,-51105.94494413673,0.026000000000000002,1.004,-0.05,192.0,0.0,0.0,0.0,0.0,0.0,0.0,0.0,0.0,0.0,1769807844.1383529,0.0,-44.0
132.0,-38005.81103632582,-6599.598419618419,-48264.32296804464,-62702.83463035043,-61709.97014164569,-21012.942017667534,-37120.57019717338,-51425.30666891416,0.026000000000000002,1.004,-0.05,192.0,0.0,0.0,0.0,0.0,0.0,0.0,0.0,0.0,0.0,1769807844.1383612,0.0,-44.0
133.0,-37967.70131202952,-6566.853113991394,-48647.14129533068,-62696.28556922502,-61669.8040568595,-20733.835784654115,-37457.589800070506,-51512.6572862455,0.026000000000000002,1.004,-0.05,192.0,0.0,0.0,0.0,0.0,0.0,0.0,0.0,0.0,0.0,1769807844.1383705,0.0,-44.0
134.0,-37586.76053127772,-6190.181516430559,-48654.182094834105,-62333.42734973757,-61284.10235453873,-21657.253403336217,-37418.831875185,-51226.26438453965,0.026000000000000002,1.004,-0.05,192.0,0.0,0.0,0.0,0.0,0.0,0.0,0.0,0.0,0.0,1769807844.1383789,0.0,-44.0
135.0,-37595.12008370401,-6185.219429161481,-48206.38724641648,-62294.8035353188,-61293.40068023213,-22075.6110043062,-37016.388716267196,-51079.30166474601,0.026000000000000002,1.004,-0.05,192.0,0.0,0.0,0.0,0.0,0.0,0.0,0.0,0.0,0.0,1769807844.1383872,0.0,-44.0
136.0,-37961.12989915966,-6545.149570125291,-48202.96742951482,-62643.96013545515,-61663.00912654509,-21191.375993654252,-37058.99114119901,-51359.70429893784,0.03,1.008,-0.05,192.0,0.0,240.0,31.0,128.0,254.0,112.0,0.0,0.0,0.0,1769807844.1383955,0.0,-44.0
137.0,-38018.66328938762,-6607.332123199955,-48611.87024258021,-62742.866604669885,-61728.85736571043,-20692.70857485635,-37431.32650033552,-51537.11009467961,0.03,1.008,-0.05,192.0,0.0,0.0,0.0,0.0,0.0,0.0,0.0,0.0,0.0,1769807844.1384041,0.0,-44.0
138.0,-37642.21520927134,-6227.575984904288,-48706.44047337061,-62402.36012963774,-61347.91658495863,-21464.424903920284,-37471.96197175526,-51283.37309162296,0.03,1.008,-0.05,192.0,0.0,0.0,0.0,0.0,0.0,0.0,0.0,0.0,0.0,1769807844.1384125,0.0,-44.0
139.0,-37584.50300508774,-6172.635397033143,-48303.93025921944,-62303.967750545475,-61294.00417733243,-22113.13958324666,-37106.44389467763,-51099.48528998915,0.03,1.008,-0.05,192.0,0.0,0.0,0.0,0.0,0.0,0.0,0.0,0.0,0.0,1769807844.1384213,0.0,-44.0
140.0,-37955.45255606801,-6545.931881181226,-48213.62921162,-62643.64721103278,-61669.3570219704,-21346.51945191854,-37075.62083907376,-51357.53617972567,0.03,1.008,-0.05,192.0,0.0,0.0,0.0,0.0,0.0,0.0,0.0,0.0,0.0,1769807844.1384296,0.0,-44.0
141.0,-38069.64761849018,-6653.622585966896,-48567.8149542588,-62780.28342488807,-61776.779505822604,-20670.46858912332,-37408.840645413475,-51552.91277800951,0.03,1.008,-0.05,192.0,0.0,0.0,0.0,0.0,0.0,0.0,0.0,0.0,0.0,1769807844.138438,0.0,-44.0
142.0,-37738.41711740698,-6328.449407631088,-48745.17604651166,-62486.46974402306,-61438.32939128034,-21253.15621532872,-37524.84619913652,-51359.033746604175,0.03,1.008,-0.05,192.0,0.0,0.0,0.0,0.0,0.0,0.0,0.0,0.0,0.0,1769807844.1384475,0.0,-44.0
143.0,-37536.80438242011,-6127.082541833227,-48355.182809255464,-62252.51403480936,-61227.73125502244,-22110.815001823306,-37153.78488943397,-51074.63015015485,0.03,1.008,-0.05,192.0,0.0,0.0,0.0,0.0,0.0,0.0,0.0,0.0,0.0,1769807844.1384587,0.0,-44.0
144.0,-37866.98435151391,-6457.575435349398,-48160.87909470548,-62556.81068382391,-61574.16094233524,-21534.654084998856,-37013.08065808781,-51268.39742283791,0.03,1.008,-0.05,192.0,0.0,0.0,0.0,0.0,0.0,0.0,0.0,0.0,0.0,1769807844.138467,0.0,-44.0
145.0,-38070.02759814592,-6653.60023422244,-48489.829717854234,-62776.52833181958,-61776.913616289334,-20702.699804627875,-37334.20817067721,-51532.0138969438,0.03,1.008,-0.05,192.0,0.0,0.0,0.0,0.0,0.0,0.0,0.0,0.0,0.0,1769807844.1384754,0.0,-44.0
146.0,-37808.802760696744,-6391.660140950697,-48735.09540976232,-62548.160558719705,-61507.351578158334,-21068.307288683332,-37516.374887987964,-51402.84316573658,0.03,1.008,-0.05,192.0,0.0,0.0,0.0,0.0,0.0,0.0,0.0,0.0,0.0,1769807844.138484,0.0,-44.0
147.0,-37529.36125151649,-6115.861966116663,-48452.72582205842,-62259.37602035714,-61227.574792811254,-22044.050341135306,-37241.96252131015,-51110.05766511651,0.028,1.008,-0.048,192.0,0.0,224.0,31.0,128.0,254.0,128.0,0.0,0.0,0.0,1769807844.1384923,0.0,-44.0
148.0,-37764.76982411979,-6345.883768306228,-48123.32816402056,-62456.60781343077,-61473.62279577527,-21708.52830511669,-36973.674532613106,-51191.84269807848,0.028,1.008,-0.048,192.0,0.0,0.0,0.0,0.0,0.0,0.0,0.0,0.0,0.0,1769807844.1385012,0.0,-44.0
149.0,-38085.226784375525,-6665.357251805932,-48433.07863868221,-62792.57688433849,-61800.40529971186,-20772.19137813942,-37287.94005965472,-51535.72428652338,0.028,1.008,-0.048,192.0,0.0,0.0,0.0,0.0,0.0,0.0,0.0,0.0,0.0,1769807844.1385095,0.0,-44.0
150.0,-37879.769549342345,-6477.557894892442,-48732.92729055015,-62626.34696082437,-61589.60599775386,-20905.586589048697,-37532.803420162614,-51478.50382071779,0.028,1.008,-0.048,192.0,0.0,0.0,0.0,0.0,0.0,0.0,0.0,0.0,0.0,1769807844.138518,0.0,-44.0
151.0,-37532.311681784595,-6140.672402462054,-48543.63036675815,-62280.74428805641,-61240.11412145068,-21937.656037528042,-37320.283033881555,-51156.03520346108,0.028,1.008,-0.048,192.0,0.0,0.0,0.0,0.0,0.0,0.0,0.0,0.0,0.0,1769807844.1385267,0.0,-44.0
152.0,-37730.37048940307,-6332.182148955125,-48179.7216152813,-62435.99950504297,-61440.92219363716,-21852.473539408868,-37011.069001086835,-51190.72511085572,0.028,1.008,-0.048,192.0,0.0,0.0,0.0,0.0,0.0,0.0,0.0,0.0,0.0,1769807844.1385353,0.0,-44.0
153.0,-38034.84595237326,-6623.02304780758,-48342.889349805046,-62738.93269764575,-61750.98559272118,-20887.861655695637,-37202.39993362426,-51481.118974819066,0.028,1.008,-0.048,192.0,0.0,0.0,0.0,0.0,0.0,0.0,0.0,0.0,0.0,1769807844.1385436,0.0,-44.0
154.0,-37924.36127953068,-6524.183633826213,-48692.31417087486,-62666.64715607729,-61632.38723664132,-20798.566436596684,-37494.87250982196,-51492.630123213545,0.028,1.008,-0.048,192.0,0.0,0.0,0.0,0.0,0.0,0.0,0.0,0.0,0.0,1769807844.1385522,0.0,-44.0
155.0,-37571.56134504811,-6147.489684520922,-48621.79441711836,-62319.770433875376,-61257.928461781565,-21797.376489326536,-37387.338267247476,-51191.552125400565,0.028,1.008,-0.048,192.0,0.0,0.0,0.0,0.0,0.0,0.0,0.0,0.0,0.0,1769807844.1385608,0.0,-44.0
156.0,-37661.03537810271,-6245.837360124274,-48191.0763014646,-62367.603167009736,-61354.44329433958,-21984.30412820627,-37013.728858677016,-51126.75441822463,0.028,1.008,-0.048,192.0,0.0,0.0,0.0,0.0,0.0,0.0,0.0,0.0,0.0,1769807844.1385696,0.0,-44.0
157.0,-38038.35517625275,-6624.006524563614,-48281.86908744206,-62729.32144752997,-61728.38797907686,-21028.141203897143,-37141.11145032781,-51437.980108020325,0.02,1.01,-0.056,192.0,0.0,160.0,31.0,144.0,254.0,64.0,0.0,0.0,0.0,1769807844.138578,0.0,-44.0
158.0,-38003.57586188029,-6581.515858354075,-48657.66896696913,-62727.332142273444,-61691.93228387026,-20708.91358958645,-37471.53728861061,-51523.83315847316,0.02,1.01,-0.056,192.0,0.0,0.0,0.0,0.0,0.0,0.0,0.0,0.0,0.0,1769807844.1385865,0.0,-44.0
159.0,-37630.30172947666,-6202.094996225238,-48692.64944704169,-62380.41071658263,-61312.8243461638,-21605.598521900003,-37452.13597442341,-51245.442181282306,0.02,1.01,-0.056,192.0,0.0,0.0,0.0,0.0,0.0,0.0,0.0,0.0,0.0,1769807844.138595,0.0,-44.0
160.0,-37608.84405479956,-6187.231086162458,-48240.36189798855,-62326.09597755623,-61303.302503025836,-22061.61881227718,-37046.34005383731,-51090.96927535168,0.02,1.01,-0.056,192.0,0.0,0.0,0.0,0.0,0.0,0.0,0.0,0.0,0.0,1769807844.138604,0.0,-44.0
161.0,-37967.209573651504,-6559.164113898768,-48226.615575148535,-62672.190388702205,-61687.01490009009,-21190.191351198122,-37081.96873449907,-51372.601255488546,0.02,1.01,-0.056,192.0,0.0,0.0,0.0,0.0,0.0,0.0,0.0,0.0,0.0,1769807844.1386125,0.0,-44.0
162.0,-38012.69537361805,-6600.514841141086,-48592.33481792627,-62734.3058865435,-61723.98468541917,-20668.747504800263,-37418.3848402959,-51517.19469036993,0.02,1.01,-0.056,192.0,0.0,0.0,0.0,0.0,0.0,0.0,0.0,0.0,0.0,1769807844.138621,0.0,-44.0
163.0,-37652.49701172078,-6240.383534477179,-48694.99638020949,-62396.0792894458,-61352.56574780533,-21419.877877220857,-37468.31863740905,-51271.504315317194,0.02,1.01,-0.056,192.0,0.0,0.0,0.0,0.0,0.0,0.0,0.0,0.0,0.0,1769807844.1386297,0.0,-44.0
164.0,-37581.35140911954,-6174.691757523032,-48311.12752093405,-62294.1553347296,-61292.46190696501,-22106.47876339898,-37122.06776405189,-51097.18306031026,0.02,1.01,-0.056,192.0,0.0,0.0,0.0,0.0,0.0,0.0,0.0,0.0,0.0,1769807844.138638,0.0,-44.0
165.0,-37914.146532314604,-6519.467415746143,-48191.7245020538,-62617.8309461869,-61651.29681245051,-21374.41442899876,-37060.421652844154,-51336.43613295986,0.02,1.01,-0.056,192.0,0.0,0.0,0.0,0.0,0.0,0.0,0.0,0.0,0.0,1769807844.1386466,0.0,-44.0
166.0,-38035.27063551791,-6621.9948675626365,-48531.44866603001,-62748.78981695054,-61756.39471487937,-20674.156626958447,-37385.10309280194,-51530.65044053202,0.02,1.01,-0.056,192.0,0.0,0.0,0.0,0.0,0.0,0.0,0.0,0.0,0.0,1769807844.1386547,0.0,-44.0
167.0,-37726.436582378934,-6311.8867649897065,-48709.65912457218,-62466.21906354655,-61427.77936789744,-21228.278723749965,-37500.70631512479,-51342.001717329236,0.022,1.012,-0.056,192.0,0.0,176.0,31.0,160.0,254.0,64.0,0.0,0.0,0.0,1769807844.1386633,0.0,-44.0
168.0,-37572.5671735486,-6160.453696305,-48395.61711497511,-62286.08635498123,-61266.62329037468,-22091.43603938056,-37208.144331949276,-51123.11108387841,0.022,1.012,-0.056,192.0,0.0,0.0,0.0,0.0,0.0,0.0,0.0,0.0,0.0,1769807844.1386719,0.0,-44.0
169.0,-37882.31764821025,-6453.194493436157,-48172.25613263323,-62556.18483497916,-61583.57102675093,-21547.014599682643,-37049.11167014977,-51295.15246095091,0.022,1.012,-0.056,192.0,0.0,0.0,0.0,0.0,0.0,0.0,0.0,0.0,0.0,1769807844.1386805,0.0,-44.0
170.0,-38096.559118814366,-6668.46414428522,-48489.181517265024,-62791.883980260376,-61797.052538043565,-20700.10700227106,-37350.68140634077,-51557.807810045226,0.022,1.012,-0.056,192.0,0.0,0.0,0.0,0.0,0.0,0.0,0.0,0.0,0.0,1769807844.1386893,0.0,-44.0
171.0,-37844.69966229197,-6423.2431558660455,-48766.83488688885,-62587.96901559461,-61546.780055377494,-21018.82052645928,-37560.45252805383,-51458.85663734158,0.022,1.012,-0.056,192.0,0.0,0.0,0.0,0.0,0.0,0.0,0.0,0.0,0.0,1769807844.1386979,0.0,-44.0
172.0,-37545.65567322441,-6132.536367480322,-48483.21360149546,-62274.41874437556,-61236.42608361556,-22014.07665182074,-37274.52901298154,-51138.64554627485,0.022,1.012,-0.056,192.0,0.0,0.0,0.0,0.0,0.0,0.0,0.0,0.0,0.0,1769807844.138706,0.0,-44.0
173.0,-37784.551117962736,-6353.550416654399,-48148.92091142189,-62465.816732146355,-61477.9590341996,-21719.860639555533,-36998.909652103146,-51211.892212854895,0.022,1.012,-0.056,192.0,0.0,0.0,0.0,0.0,0.0,0.0,0.0,0.0,0.0,1769807844.1387143,0.0,-44.0
174.0,-38073.11213888075,-6649.9345481317705,-48398.38873128757,-62760.09979964493,-61772.08563948699,-20779.567453809675,-37256.91583835075,-51508.25399258781,0.022,1.012,-0.056,192.0,0.0,0.0,0.0,0.0,0.0,0.0,0.0,0.0,0.0,1769807844.138723,0.0,-44.0
175.0,-37889.827834347234,-6476.820287325417,-48726.668802102664,-62625.45289104616,-61601.29596010399,-20868.348582786155,-37530.61294920599,-51477.07330907266,0.022,1.012,-0.056,192.0,0.0,0.0,0.0,0.0,0.0,0.0,0.0,0.0,0.0,1769807844.138731,0.0,-44.0
176.0,-37553.59054250605,-6147.26616707637,-48562.875218734174,-62291.56253237278,-61260.45420890501,-21892.95254861743,-37347.887438283855,-51162.69602330876,0.022,1.012,-0.056,192.0,0.0,0.0,0.0,0.0,0.0,0.0,0.0,0.0,0.0,1769807844.138739,0.0,-44.0
177.0,-37761.126489773575,-6340.318183936856,-48204.800272560155,-62444.292002235896,-61458.08833337884,-21847.198527717417,-37047.43528931562,-51199.33053247101,0.018000000000000002,1.01,-0.06,192.0,0.0,144.0,31.0,144.0,254.0,32.0,0.0,0.0,0.0,1769807844.1387477,0.0,-44.0
178.0,-38078.34244708329,-6653.756696433627,-48355.02634704427,-62761.82088396799,-61785.541389649086,-20875.210568333932,-37230.451372915675,-51496.6534372155,0.018000000000000002,1.01,-0.06,192.0,0.0,0.0,0.0,0.0,0.0,0.0,0.0,0.0,0.0,1769807844.138756,0.0,-44.0
179.0,-37936.36416630318,-6528.206947828168,-48679.417214324145,-62664.635499076314,-61648.68165834924,-20744.564621992664,-37506.56247217208,-51495.98288488184,0.018000000000000002,1.01,-0.06,192.0,0.0,0.0,0.0,0.0,0.0,0.0,0.0,0.0,0.0,1769807844.1387646,0.0,-44.0
180.0,-37564.09586240004,-6155.648071247109,-48618.28519323888,-62313.131965772154,-61266.46682816349,-21732.757596106243,-37395.988392351675,-51184.64543636387,0.018000000000000002,1.01,-0.06,192.0,0.0,0.0,0.0,0.0,0.0,0.0,0.0,0.0,0.0,1769807844.1387732,0.0,-44.0
181.0,-37650.820630886636,-6224.513795913911,-48193.31147591013,-62349.67706795658,-61348.85535822575,-21965.998049497375,-37025.396469282685,-51118.283107076066,0.018000000000000002,1.01,-0.06,192.0,0.0,0.0,0.0,0.0,0.0,0.0,0.0,0.0,0.0,1769807844.1387818,0.0,-44.0
182.0,-38007.57682413779,-6597.922038784271,-48250.62134869354,-62692.35166220089,-61712.40648179132,-21027.023616674378,-37121.68778439615,-51409.995723962274,0.018000000000000002,1.01,-0.06,192.0,0.0,0.0,0.0,0.0,0.0,0.0,0.0,0.0,0.0,1769807844.1387901,0.0,-44.0
183.0,-37998.79258856685,-6579.7947740310165,-48635.40662949165,-62712.78115663304,-61693.72042342668,-20671.116789712523,-37464.47413736274,-51517.77583572577,0.018000000000000002,1.01,-0.06,192.0,0.0,0.0,0.0,0.0,0.0,0.0,0.0,0.0,0.0,1769807844.1388083,0.0,-44.0
184.0,-37630.86052308804,-6228.335944215768,-48681.00418818047,-62372.43114381208,-61320.71451195652,-21545.673495015322,-37459.17677392683,-51244.07872487053,0.018000000000000002,1.01,-0.06,192.0,0.0,0.0,0.0,0.0,0.0,0.0,0.0,0.0,0.0,1769807844.1388173,0.0,-44.0
185.0,-37632.715717877836,-6223.329153457779,-48266.535790745715,-62334.76845440489,-61325.85541318124,-22031.578067729246,-37097.123217239765,-51119.28893557655,0.018000000000000002,1.01,-0.06,192.0,0.0,0.0,0.0,0.0,0.0,0.0,0.0,0.0,0.0,1769807844.1388257,0.0,-44.0
186.0,-37991.30475417432,-6571.68109079374,-48226.99555480428,-62678.11360098286,-61698.436641506756,-21179.551920837395,-37108.54495865643,-51390.9296859419,0.018000000000000002,1.01,-0.06,192.0,0.0,0.0,0.0,0.0,0.0,0.0,0.0,0.0,0.0,1769807844.138834,0.0,-44.0
187.0,-38068.999417900974,-6656.327147045988,-48619.492187439464,-62782.60800631142,-61777.67357560081,-20619.68542572086,-37469.391521142905,-51574.52691489779,0.02,1.01,-0.062,192.0,0.0,160.0,31.0,144.0,254.0,16.0,0.0,0.0,0.0,1769807844.1388426,0.0,-44.0
188.0,-37714.36664037307,-6309.606887055264,-48736.88354931874,-62448.605888915765,-61400.10790826177,-21338.294009958987,-37521.67225142387,-51336.749057382236,0.02,1.01,-0.062,192.0,0.0,0.0,0.0,0.0,0.0,0.0,0.0,0.0,0.0,1769807844.138851,0.0,-44.0
189.0,-37604.10548497504,-6190.159164686104,-48342.2635009603,-62312.66257913859,-61289.01973831889,-22068.19022514704,-37164.62548549479,-51129.86131070391,0.02,1.01,-0.062,192.0,0.0,0.0,0.0,0.0,0.0,0.0,0.0,0.0,0.0,1769807844.1388595,0.0,-44.0
190.0,-37947.584742019746,-6516.405226755765,-48202.74391207027,-62630.81730971543,-61643.85368154689,-21372.246309786595,-37080.78409204294,-51353.11053432352,0.02,1.01,-0.062,192.0,0.0,0.0,0.0,0.0,0.0,0.0,0.0,0.0,0.0,1769807844.138868,0.0,-44.0
191.0,-38079.92942093962,-6659.791667436561,-48549.9112069501,-62787.92772149178,-61778.41118316784,-20644.875841721994,-37397.9776976082,-51567.642577605555,0.02,1.01,-0.062,192.0,0.0,0.0,0.0,0.0,0.0,0.0,0.0,0.0,0.0,1769807844.1388764,0.0,-44.0
192.0,-37760.38888220655,-6346.151989239692,-48744.21492150008,-62505.111098898786,-61452.12041760927,-21160.552938050383,-37523.2592252802,-51381.631360248495,0.02,1.01,-0.062,192.0,0.0,0.0,0.0,0.0,0.0,0.0,0.0,0.0,0.0,1769807844.1388848,0.0,-44.0
193.0,-37552.361196561,-6139.621870472654,-48410.279859337796,-62277.99502348841,-61252.02760124536,-22061.574108788267,-37209.44073312768,-51116.49496751964,0.02,1.01,-0.062,192.0,0.0,0.0,0.0,0.0,0.0,0.0,0.0,0.0,0.0,1769807844.1388931,0.0,-44.0
194.0,-37875.36625568465,-6455.541426603964,-48179.52044958121,-62550.10516048732,-61568.41654401023,-21555.17298640883,-37035.47710603203,-51283.14957417841,0.02,1.01,-0.062,192.0,0.0,0.0,0.0,0.0,0.0,0.0,0.0,0.0,0.0,1769807844.1389015,0.0,-44.0
195.0,-38098.63783104871,-6688.960693950737,-48477.15627874807,-62783.79264876755,-61784.51320940414,-20692.730926600805,-37330.18485667525,-51542.273347648785,0.02,1.01,-0.062,192.0,0.0,0.0,0.0,0.0,0.0,0.0,0.0,0.0,0.0,1769807844.1389096,0.0,-44.0
196.0,-37864.57036311273,-6458.268339427512,-48767.639549689244,-62597.043823843465,-61555.452532226154,-20975.793418382815,-37558.06089139711,-51458.07432628564,0.02,1.01,-0.062,192.0,0.0,0.0,0.0,0.0,0.0,0.0,0.0,0.0,0.0,1769807844.1389232,0.0,-44.0
197.0,-37562.15126063243,-6167.382737086146,-48517.61293621218,-62293.66359635158,-61259.69424959353,-21980.079648504216,-37306.33554534144,-51154.157656926836,0.02,1.006,-0.058,192.0,0.0,160.0,31.0,112.0,254.0,48.0,0.0,0.0,0.0,1769807844.1389313,0.0,-44.0
198.0,-37786.76394066381,-6369.844838362317,-48170.266827376705,-62472.47755199404,-61479.79187724494,-21721.805241323145,-37019.49560874648,-51216.206099534764,0.02,1.006,-0.058,192.0,0.0,0.0,0.0,0.0,0.0,0.0,0.0,0.0,0.0,1769807844.1389399,0.0,-44.0
199.0,-38083.72921749702,-6657.131809846379,-48409.11756862612,-62782.85387550043,-61785.63079662691,-20772.63841302853,-37271.198603057695,-51517.08293164765,0.02,1.006,-0.058,192.0,0.0,0.0,0.0,0.0,0.0,0.0,0.0,0.0,0.0,1769807844.138949,0.0,-44.0
200.0,-37935.98418664744,-6511.040808086492,-48753.89322684923,-62673.62090034734,-61633.616582586365,-20824.807384587217,-37557.904429185925,-51505.68354197545,0.02,1.006,-0.058,192.0,0.0,0.0,0.0,0.0,0.0,0.0,0.0,0.0,0.0,1769807844.1389575,0.0,-44.0
201.0,-37617.13655199249,-6191.187344931048,-48609.05392277884,-62333.33794275975,-61279.27437773638,-21846.639734106033,-37385.30425850204,-51193.563782401536,0.02,1.006,-0.058,192.0,0.0,0.0,0.0,0.0,0.0,0.0,0.0,0.0,0.0,1769807844.138966,0.0,-44.0
202.0,-37747.491925655835,-6324.940183751605,-48215.10442675405,-62443.59909815778,-61440.49751049251,-21847.913783539985,-37048.262303860465,-51190.70275911126,0.02,1.006,-0.058,192.0,0.0,0.0,0.0,0.0,0.0,0.0,0.0,0.0,0.0,1769807844.138975,0.0,-44.0
203.0,-38054.20256307156,-6631.449655467231,-48339.80480907021,-62755.24947109813,-61761.759133548636,-20881.044373636767,-37204.568052836425,-51476.26864627226,0.02,1.006,-0.058,192.0,0.0,0.0,0.0,0.0,0.0,0.0,0.0,0.0,0.0,1769807844.1389832,0.0,-44.0
204.0,-38013.45533292954,-6587.68493982374,-48719.67270608815,-62729.924944630264,-61696.40263276132,-20698.788249348196,-37530.92587362837,-51539.52408308078,0.02,1.006,-0.058,192.0,0.0,0.0,0.0,0.0,0.0,0.0,0.0,0.0,0.0,1769807844.1389914,0.0,-44.0
205.0,-37632.44749694437,-6206.252420693925,-48682.54645854789,-62366.77615246489,-61313.293732797356,-21667.222281363283,-37455.913419236356,-51239.80954167957,0.02,1.006,-0.058,192.0,0.0,0.0,0.0,0.0,0.0,0.0,0.0,0.0,0.0,1769807844.1389997,0.0,-44.0
206.0,-37680.70491322338,-6261.349470776257,-48237.4338194649,-62384.18816139557,-61376.92914926162,-21949.524813833814,-37067.57421106985,-51141.99830794315,0.02,1.006,-0.058,192.0,0.0,0.0,0.0,0.0,0.0,0.0,0.0,0.0,0.0,1769807844.1390083,0.0,-44.0
207.0,-38036.2764640184,-6623.850062352427,-48286.22767761084,-62738.46331101219,-61745.062380440526,-21022.240343360943,-37158.00936913602,-51445.870273813045,0.014,1.008,-0.062,192.0,0.0,112.0,31.0,128.0,254.0,16.0,0.0,0.0,0.0,1769807844.1390164,0.0,-44.0
208.0,-38016.852798086744,-6624.945297830737,-48661.11113561525,-62760.971517678685,-61730.75726398913,-20637.41035907392,-37491.51974815366,-51556.667871078,0.014,1.008,-0.062,192.0,0.0,0.0,0.0,0.0,0.0,0.0,0.0,0.0,0.0,1769807844.1390247,0.0,-44.0
209.0,-37652.67582567642,-6260.969491120517,-48721.52790087795,-62421.493222891484,-61359.69595428657,-21483.49094194066,-37503.99202155972,-51295.26421967318,0.014,1.008,-0.062,192.0,0.0,0.0,0.0,0.0,0.0,0.0,0.0,0.0,0.0,1769807844.139033,0.0,-44.0
